PseudoTimeSec,PseudoTimestamp,UF-FP1,UF-FP2,UF-O1,UF-O2,UF-C3,UF-CZ,UF-FZ,UF-C4
0.004,09-22-2026 23:39:59:362,-64966.91,-75990.701,73060.387,33112.545,155180.294,7561.327,74262.375,56315.086
0.008,09-22-2026 23:39:59:366,-64481.966,-75566.912,90390.142,41118.94,156517.644,16498.448,73987.806,57867.906
0.012,09-22-2026 23:39:59:370,-64603.202,-75863.564,93360.957,45816.025,156740.535,15828.164,73994.422,57673.804
0.016,09-22-2026 23:39:59:374,-64835.571,-76287.353,82963.104,41012.188,156517.644,10614.843,74206.138,56777.946
0.02,09-22-2026 23:39:59:378,-64896.189,-76435.679,73060.387,33005.793,156517.644,7561.327,74364.924,56374.81
0.024,09-22-2026 23:39:59:382,-64623.408,-76124.901,77846.7,33219.297,157161.553,11285.128,74262.375,57106.427
0.028,09-22-2026 23:39:59:386,-64330.422,-75799.996,90390.142,41225.692,157954.056,16721.876,74053.967,58032.147
0.032,09-22-2026 23:39:59:390,-64380.937,-75941.259,93526.002,46136.28,158028.353,16126.068,74047.351,57808.183
0.036,09-22-2026 23:39:59:394,-64663.82,-76357.985,82963.104,41118.94,157508.273,10763.795,74249.142,56897.394
0.04,09-22-2026 23:39:59:398,-64714.335,-76463.932,72895.342,33005.793,157161.553,7635.803,74407.929,56464.396
0.044,09-22-2026 23:39:59:402,-64421.349,-76131.964,77846.7,33326.049,157458.741,11434.08,74278.915,57181.082
0.048,09-22-2026 23:39:59:406,-64158.671,-75807.059,90555.187,41332.444,157830.227,16796.352,74067.199,58047.078
0.052,09-22-2026 23:39:59:410,-64259.701,-75969.511,93526.002,46243.032,157607.336,16200.544,74040.735,57852.975
0.056,09-22-2026 23:39:59:414,-64522.378,-76350.922,83128.149,41332.444,156913.895,10838.271,74239.218,56912.325
0.06,09-22-2026 23:39:59:418,-64552.687,-76386.237,73060.387,33219.297,156369.049,7784.755,74381.465,56479.327
0.064,09-22-2026 23:39:59:422,-64310.216,-76026.017,78011.746,33539.553,156443.346,11508.556,74242.526,57136.289
0.068,09-22-2026 23:39:59:426,-64017.229,-75665.796,90720.232,41652.699,156814.832,16945.305,74017.578,58047.078
0.072,09-22-2026 23:39:59:430,-64138.465,-75863.564,93691.047,46349.784,156517.644,16126.068,74007.654,57823.114
0.07600001,09-22-2026 23:39:59:434,-64391.04,-76230.848,82963.104,41332.444,155824.203,10763.795,74219.37,56972.049
0.08000001,09-22-2026 23:39:59:438,-64380.937,-76301.479,72895.342,33219.297,155452.717,7784.755,74364.924,56583.843
0.08400001,09-22-2026 23:39:59:442,-64027.332,-75962.448,78011.746,33646.304,155700.374,11583.032,74239.218,57300.53
0.08800001,09-22-2026 23:39:59:446,-63683.83,-75637.543,90885.277,41866.203,156170.923,17019.781,74020.886,58211.319
0.09200001,09-22-2026 23:39:59:450,-63794.963,-75849.438,93691.047,46563.288,155898.5,16200.544,74017.578,57942.561
0.096,09-22-2026 23:39:59:454,-64007.126,-76202.595,82963.104,41545.947,155279.357,10763.795,74216.062,57031.772
0.1,09-22-2026 23:39:59:458,-64027.332,-76287.353,72730.297,33326.049,154883.105,7710.279,74358.308,56583.843
0.104,09-22-2026 23:39:59:462,-63702.695,-75941.259,77916.17,33748.675,155202.512,11633.01,74212.754,57314.969
0.108,09-22-2026 23:39:59:466,-63418.023,-75667.673,90976.026,42020.207,155713.204,17166.05,73976.272,58197.863
0.112,09-22-2026 23:39:59:470,-63480.295,-75722.39,94135.668,46878.09,155713.204,16402.872,73955.709,57985.968
0.116,09-22-2026 23:39:59:474,-63809.447,-75968.617,82760.955,41495.03,155082.349,10679.038,74181.908,56961.811
0.12,09-22-2026 23:39:59:478,-63871.719,-75941.259,72228.813,32960.911,154736.88,7435.531,74341.276,56502.707
0.124,09-22-2026 23:39:59:482,-63533.671,-75448.805,77705.527,33486.087,155232.552,11633.01,74192.19,57297.311
0.128,09-22-2026 23:39:59:486,-63231.208,-74997.389,91186.668,42020.207,155953.53,17356.845,73971.131,58215.521
0.132,09-22-2026 23:39:59:490,-63382.439,-75134.182,94346.311,47009.384,155938.51,16402.872,73991.695,57932.995
0.136,09-22-2026 23:39:59:494,-63693.799,-75503.522,82550.312,41363.736,155337.695,10488.243,74223.035,56838.206
0.14,09-22-2026 23:39:59:498,-63729.383,-75544.56,71386.241,32435.734,155007.247,7149.34,74387.544,56379.101
0.144,09-22-2026 23:39:59:502,-63346.855,-75038.427,77284.241,33092.205,155578.021,11633.01,74202.472,57209.022
0.148,09-22-2026 23:39:59:506,-63079.976,-74641.728,91818.597,42151.501,156268.958,17643.037,73930.004,58144.889
0.152,09-22-2026 23:39:59:510,-63249,-74860.597,95188.882,47534.561,156163.815,16689.064,73924.863,57809.39
0.156,09-22-2026 23:39:59:514,-63631.527,-75366.73,82550.312,41495.03,155412.797,10106.654,74207.613,56643.97
0.16,09-22-2026 23:39:59:518,-63658.215,-75394.088,70543.67,32041.852,155082.349,6576.956,74366.981,56167.207
0.164,09-22-2026 23:39:59:522,-63249,-74846.917,76652.312,32567.028,155698.184,11442.216,74135.64,57067.759
0.168,09-22-2026 23:39:59:526,-62919.848,-74368.143,92450.525,42414.089,156554.345,18120.023,73822.045,58144.889
0.172,09-22-2026 23:39:59:530,-63133.352,-74655.408,96031.454,48059.737,156434.182,16975.256,73842.609,57756.416
0.176,09-22-2026 23:39:59:534,-63524.775,-75216.258,82760.955,41757.618,155593.041,10011.257,74140.781,56538.022
0.18,09-22-2026 23:39:59:538,-63551.463,-75270.975,69911.742,31779.263,155172.471,6290.764,74325.854,56008.286
0.184,09-22-2026 23:39:59:542,-63062.184,-74655.408,76441.67,32567.028,155878.428,11442.216,74079.09,57014.785
0.188,09-22-2026 23:39:59:546,-62741.928,-74231.35,92871.811,42676.677,156644.467,18215.42,73739.791,58091.916
0.192,09-22-2026 23:39:59:550,-63044.392,-74559.653,96452.739,48322.326,156419.162,16975.256,73770.636,57685.784
0.196,09-22-2026 23:39:59:554,-63515.879,-75147.861,82760.955,41757.618,155547.98,9820.462,74109.936,56432.075
0.2,09-22-2026 23:39:59:558,-63551.463,-75216.258,69701.099,31647.969,155157.45,6099.97,74305.29,55972.97
0.204,09-22-2026 23:39:59:562,-63045.777,-74575.031,76302.642,32329.563,155927.781,11406.095,74066.26,57006.56
0.208,09-22-2026 23:39:59:566,-62707.819,-74118.698,92980.351,42625.09,156783.406,18284.04,73751.637,58099.292
0.212,09-22-2026 23:39:59:570,-62981.404,-74432.427,96615.237,48374.539,156606.38,17024.698,73794.821,57717.703
0.216,09-22-2026 23:39:59:574,-63448.109,-75059.885,82717.145,41822.841,155706.499,9759.263,74140.289,56468.866
0.22,09-22-2026 23:39:59:578,-63480.295,-75116.926,69460.505,31393.606,155293.438,5981.237,74356.207,56035.242
0.224,09-22-2026 23:39:59:582,-62973.358,-74475.208,76088.825,32195.855,156031.046,11309.223,74115.613,57127.974
0.228,09-22-2026 23:39:59:586,-62627.353,-74018.875,92980.351,42491.381,156827.662,18284.04,73788.652,58238.051
0.232,09-22-2026 23:39:59:590,-62892.892,-74332.604,96615.237,48374.539,156650.636,17024.698,73838.004,57804.427
0.236,09-22-2026 23:39:59:594,-63343.503,-74903.02,82503.329,41555.425,155765.507,9759.263,74183.473,56520.901
0.24,09-22-2026 23:39:59:598,-63335.456,-74888.76,69460.505,31393.606,155411.456,6078.11,74350.038,56052.587
0.244,09-22-2026 23:39:59:602,-62860.705,-74232.781,76302.642,32195.855,156134.311,11406.095,74090.937,57093.284
0.248,09-22-2026 23:39:59:606,-62538.84,-73733.666,92980.351,42491.381,156960.432,18284.04,73751.637,58168.672
0.252,09-22-2026 23:39:59:610,-62812.425,-74047.395,96401.42,48107.123,156768.654,17024.698,73794.821,57769.738
0.256,09-22-2026 23:39:59:614,-63271.083,-74603.552,82503.329,41555.425,155913.029,9759.263,74134.12,56520.901
0.26,09-22-2026 23:39:59:618,-63295.223,-74617.812,69460.505,31393.606,155499.969,6078.11,74343.869,56052.587
0.264,09-22-2026 23:39:59:622,-62796.332,-73961.833,76516.459,32195.855,156267.08,11502.968,74121.782,57127.974
0.268,09-22-2026 23:39:59:626,-62490.56,-73519.76,92766.534,42357.673,157093.201,18284.04,73807.159,58203.361
0.272,09-22-2026 23:39:59:630,-62748.052,-73833.489,96187.603,47973.415,156916.175,17024.698,73850.342,57752.393
0.276,09-22-2026 23:39:59:634,-63158.43,-74346.864,82503.329,41421.716,156104.807,9856.136,74183.473,56486.211
0.28,09-22-2026 23:39:59:638,-63198.663,-74361.125,69674.321,31393.606,155736.003,6271.855,74399.391,56035.242
0.284,09-22-2026 23:39:59:642,-62764.145,-73762.187,76516.459,32329.563,156385.098,11502.968,74189.642,57075.939
0.288,09-22-2026 23:39:59:646,-62458.374,-73305.854,92552.718,42357.673,157166.962,18187.167,73893.526,58168.672
0.292,09-22-2026 23:39:59:650,-62683.679,-73576.802,95973.786,47839.707,157004.688,16927.825,73949.048,57804.427
0.296,09-22-2026 23:39:59:654,-63142.337,-74118.698,82289.512,41288.008,156149.063,9856.136,74300.685,56607.626
0.3,09-22-2026 23:39:59:658,-63182.57,-74118.698,69888.138,31527.314,155795.012,6465.6,74535.111,56191.347
0.304,09-22-2026 23:39:59:662,-62694.989,-73516.854,76700.637,32421.921,156509.597,11576.147,74348.071,57202.271
0.308,09-22-2026 23:39:59:666,-62325.113,-73105.001,92572.164,42285.611,157301.296,18048.855,74060.181,58233.804
0.312,09-22-2026 23:39:59:670,-62536.471,-73394.412,95548.075,47529.599,157142.956,16790.273,74111.59,57852.931
0.316,09-22-2026 23:39:59:674,-62932.767,-73906.445,82454.065,41286.757,156339.947,9957.97,74420.044,56646.831
0.32,09-22-2026 23:39:59:678,-62976.8,-73939.839,70352.026,31672.78,155932.788,6631.718,74615.398,56218.348
0.324,09-22-2026 23:39:59:682,-62510.051,-73349.887,76899.031,32546.777,156588.767,11666.046,74414.903,57186.402
0.328,09-22-2026 23:39:59:686,-62184.207,-72971.427,92175.375,42160.754,157244.746,17958.956,74137.294,58170.326
0.332,09-22-2026 23:39:59:690,-62386.759,-73238.575,95151.287,47279.885,157052.476,16610.475,74178.421,57805.322
0.336,09-22-2026 23:39:59:694,-62765.442,-73706.084,82057.277,41037.043,156249.467,10047.869,74471.453,56678.57
0.34,09-22-2026 23:39:59:698,-62783.055,-73706.084,70550.42,31672.78,155864.928,6811.515,74646.243,56250.087
0.344,09-22-2026 23:39:59:702,-62351.532,-73160.657,77097.425,32671.634,156430.427,11755.945,74466.312,57186.402
0.348,09-22-2026 23:39:59:706,-61990.462,-72804.46,91976.981,42035.898,157109.026,17779.159,74209.267,58202.065
0.352,09-22-2026 23:39:59:710,-62184.207,-73105.001,94556.104,46905.315,156928.066,16520.577,74265.817,57821.191
0.356,09-22-2026 23:39:59:714,-62510.051,-73539.117,82057.277,40912.186,156215.537,10227.667,74533.144,56742.049
0.36,09-22-2026 23:39:59:718,-62571.697,-73572.51,71145.603,32047.35,155864.928,7171.11,74713.075,56377.045
0.364,09-22-2026 23:39:59:722,-62175.401,-73071.608,77494.213,32921.348,156419.117,11755.945,74548.566,57313.36
0.368,09-22-2026 23:39:59:726,-61884.783,-72704.279,91778.587,41911.041,157041.166,17509.463,74306.944,58233.804
0.372,09-22-2026 23:39:59:730,-62043.302,-72915.771,94159.316,46655.601,156928.066,16340.779,74306.944,57852.931
0.376,09-22-2026 23:39:59:734,-62413.178,-73316.493,82057.277,40787.329,156283.397,10227.667,74533.144,56789.658
0.38,09-22-2026 23:39:59:738,-62492.438,-73327.625,71542.391,32172.207,155978.028,7350.908,74661.666,56392.915
0.384,09-22-2026 23:39:59:742,-62140.174,-72871.247,77692.607,33046.205,156486.977,11755.945,74502.298,57281.62
0.388,09-22-2026 23:39:59:746,-61858.363,-72526.18,91580.193,41911.041,157097.716,17419.564,74265.817,58217.935
0.392,09-22-2026 23:39:59:750,-62016.882,-72726.541,93762.528,46530.744,156961.996,16160.982,74276.099,57868.801
0.396,09-22-2026 23:39:59:754,-62377.952,-73127.264,82057.277,40787.329,156339.947,10227.667,74517.721,56821.398
0.4,09-22-2026 23:39:59:758,-62474.824,-73171.788,71740.785,32297.064,156011.958,7350.908,74651.384,56408.785
0.404,09-22-2026 23:39:59:762,-61848.797,-72078.386,76511.452,31982.083,158618.663,12652.741,74802.884,57572.908
0.408,09-22-2026 23:39:59:766,-61573.87,-71672.612,91491.054,41478.535,159495.745,19016.819,74563.989,58604.173
0.412,09-22-2026 23:39:59:770,-61837.8,-71924.471,93987.655,46293.637,159393.419,17570.438,74616.247,58219.633
0.416,09-22-2026 23:39:59:774,-62343.664,-72400.206,80464.402,39739.748,158618.663,10820.658,74922.332,57083.494
0.42,09-22-2026 23:39:59:778,-62442.638,-72400.206,68605.55,30109.543,158238.594,7542.194,75101.504,56716.434
0.424,09-22-2026 23:39:59:782,-62013.753,-71882.495,75887.302,31313.319,158867.169,12845.592,74899.936,57730.22
0.428,09-22-2026 23:39:59:786,-61705.835,-71518.698,91699.105,41344.782,159554.217,19498.947,74623.713,58796.443
0.432,09-22-2026 23:39:59:790,-62090.732,-71854.511,94403.755,46427.39,159247.239,18052.565,74668.506,58376.945
0.436,09-22-2026 23:39:59:794,-62651.582,-72400.206,80672.453,39739.748,158355.538,11013.509,74989.522,57223.327
0.44,09-22-2026 23:39:59:798,-62761.553,-72456.175,68397.5,29975.79,157873.143,7638.619,75183.624,56856.266
0.444,09-22-2026 23:39:59:802,-62398.65,-71882.495,75679.252,31179.566,158487.1,13038.443,74952.194,57905.01
0.448,09-22-2026 23:39:59:806,-62178.709,-71490.714,91907.155,41478.535,159218.002,19788.223,74646.109,58936.275
0.452,09-22-2026 23:39:59:810,-62486.626,-71840.518,94819.855,46694.895,158998.732,18245.416,74690.902,58481.819
0.456,09-22-2026 23:39:59:814,-62926.509,-72400.206,80672.453,39873.5,158092.413,11013.509,75026.849,57258.285
0.46,09-22-2026 23:39:59:818,-62915.511,-72400.206,68397.5,30109.543,157770.816,7638.619,75213.486,56838.787
0.464,09-22-2026 23:39:59:822,-62442.638,-71812.534,75887.302,31447.072,158545.573,13134.869,75004.452,57852.573
0.468,09-22-2026 23:39:59:826,-62112.726,-71504.706,92115.205,41746.04,159466.509,19788.223,74743.161,58901.317
0.472,09-22-2026 23:39:59:830,-62376.656,-71882.495,94819.855,46962.401,159349.565,18245.416,74832.746,58481.819
0.476,09-22-2026 23:39:59:834,-62816.538,-72456.175,80672.453,40141.006,158530.955,11013.509,75176.159,57223.327
0.48,09-22-2026 23:39:59:838,-62838.532,-72512.144,68397.5,30377.049,158165.504,7542.194,75377.727,56821.308
0.484,09-22-2026 23:39:59:842,-62354.662,-71952.456,75887.302,31714.577,158881.788,13038.443,75198.555,57835.094
0.488,09-22-2026 23:39:59:846,-62079.735,-71602.651,92115.205,41879.793,159627.308,19691.797,74929.798,58831.401
0.492,09-22-2026 23:39:59:850,-62354.662,-71994.432,94819.855,46962.401,159393.419,18052.565,74996.987,58376.945
0.496,09-22-2026 23:39:59:854,-62827.535,-72777.995,80672.453,40274.759,158501.718,10917.084,75318.003,57153.411
0.5,09-22-2026 23:39:59:858,-62970.497,-73267.722,68397.5,30377.049,158004.705,7542.194,75512.105,56716.434
0.504,09-22-2026 23:39:59:862,-62616.669,-73059.046,75908.536,31690.572,158619.11,12885.468,75296.858,57746.671
0.508,09-22-2026 23:39:59:866,-62385.909,-72878.086,92069.518,41893.159,159401.108,19487.994,74991.354,58791.391
0.512,09-22-2026 23:39:59:870,-62704.198,-73375.726,94588.112,47060.704,159225.557,17934.459,75018.713,58351.509
0.516,09-22-2026 23:39:59:874,-63189.589,-74099.564,80525.959,40170.645,158331.845,10652.26,75328.776,57141.832
0.52,09-22-2026 23:39:59:878,-63229.375,-74280.524,68352.752,30498.061,157932.867,7350.997,75520.286,56793.592
0.524,09-22-2026 23:39:59:882,-62767.856,-73828.125,75908.536,31955.574,158603.151,12788.372,75287.738,57819.984
0.528,09-22-2026 23:39:59:886,-62401.824,-73556.685,92279.401,42158.162,159353.231,19487.994,74973.115,58864.705
0.532,09-22-2026 23:39:59:890,-62648.498,-74031.705,94797.995,47193.205,159065.966,17740.267,75000.474,58406.494
0.536,09-22-2026 23:39:59:894,-63062.273,-74687.684,80316.076,40303.146,158124.376,10458.068,75310.537,57233.475
0.54,09-22-2026 23:39:59:898,-63086.145,-74800.783,68142.869,30498.061,157661.561,7156.805,75479.248,56866.906
0.544,09-22-2026 23:39:59:902,-62624.626,-74303.144,75698.653,31823.073,158315.886,12594.18,75255.82,57948.283
0.548,09-22-2026 23:39:59:906,-62266.551,-74009.085,92279.401,42290.663,159081.925,19390.898,74959.436,59011.332
0.552,09-22-2026 23:39:59:910,-62513.225,-74461.484,94797.995,47325.706,158842.538,17740.267,75014.153,58571.45
0.5560001,09-22-2026 23:39:59:914,-62966.786,-75140.083,80316.076,40303.146,157884.989,10458.068,75347.015,57361.774
0.56,09-22-2026 23:39:59:918,-62990.658,-75275.803,68142.869,30498.061,157454.092,7156.805,75538.525,56995.205
0.564,09-22-2026 23:39:59:922,-62521.182,-74800.783,75908.536,31823.073,158124.376,12691.276,75305.978,58039.925
0.568,09-22-2026 23:39:59:926,-62218.808,-74416.244,92489.283,42290.663,158938.293,19487.994,74991.354,59102.974
0.572,09-22-2026 23:39:59:930,-62521.182,-74823.403,94797.995,47325.706,158714.865,17740.267,75036.952,58644.764
0.576,09-22-2026 23:39:59:934,-62950.872,-75411.522,80525.959,40303.146,157821.153,10458.068,75360.695,57416.759
0.58,09-22-2026 23:39:59:938,-62950.872,-75502.002,68352.752,30498.061,157470.051,7253.901,75524.846,57068.519
0.5840001,09-22-2026 23:39:59:942,-62505.268,-75026.983,76118.419,32088.075,158204.172,12788.372,75283.179,58113.239
0.588,09-22-2026 23:39:59:946,-62242.679,-74732.923,92699.166,42423.164,159002.129,19390.898,74963.996,59121.303
0.592,09-22-2026 23:39:59:950,-62537.096,-75140.083,94797.995,47325.706,158746.783,17643.171,75000.474,58663.092
0.596,09-22-2026 23:39:59:954,-62998.615,-75728.202,80525.959,40303.146,157789.234,10360.972,75296.858,57453.416
0.6,09-22-2026 23:39:59:958,-63022.487,-75750.822,68562.635,30763.064,157374.296,7156.805,75465.569,57105.176
0.604,09-22-2026 23:39:59:962,-62609.427,-75206.87,76436.886,32352.809,158021.961,12666.242,75236.24,58121.956
0.608,09-22-2026 23:39:59:966,-62392.078,-74913.883,92604.44,42576.72,158709.143,19144.135,74925.104,59090.994
0.612,09-22-2026 23:39:59:970,-62709.741,-75318.003,94650.965,47235.718,158403.728,17334.135,74973.384,58597.333
0.6160001,09-22-2026 23:39:59:974,-63136.078,-75873.667,80529.938,40247.222,157487.486,10189.4,75279.155,57390.607
0.62,09-22-2026 23:39:59:978,-63177.876,-75924.182,68864.741,30799.81,157048.453,7140.98,75440.088,57024.933
0.624,09-22-2026 23:39:59:982,-62768.258,-75429.136,76641.539,32482.226,157659.281,12570.979,75209.418,58012.254
0.628,09-22-2026 23:39:59:986,-62475.674,-75105.84,92809.092,42576.72,158384.64,18953.609,74935.833,58999.575
0.632,09-22-2026 23:39:59:990,-62718.101,-75459.445,94650.965,47235.718,158079.226,17143.609,74994.841,58505.915
0.636,09-22-2026 23:39:59:994,-63119.359,-75974.697,80529.938,40247.222,157162.983,9998.874,75322.071,57335.756
0.64,09-22-2026 23:39:59:998,-63111,-75944.388,68864.741,30929.226,156800.304,7140.98,75493.732,57024.933
0.6440001,09-22-2026 23:40:00:002,-62701.382,-75449.342,76846.192,32482.226,157392.044,12475.716,75289.884,58030.538
0.648,09-22-2026 23:40:00:006,-62400.438,-75136.149,92809.092,42576.72,158098.314,18953.609,75016.299,59036.143
0.652,09-22-2026 23:40:00:010,-62634.505,-75469.548,94855.618,47235.718,157831.077,17143.609,75086.036,58597.333
0.656,09-22-2026 23:40:00:014,-63010.685,-76015.109,80529.938,40247.222,156953.011,10094.137,75418.63,57445.458
0.66,09-22-2026 23:40:00:018,-63019.045,-76075.727,69069.394,30799.81,156533.066,7140.98,75606.385,57116.351
0.664,09-22-2026 23:40:00:022,-62567.629,-75540.268,77050.844,32611.642,157220.248,12761.505,75397.173,58195.091
0.668,09-22-2026 23:40:00:026,-62291.764,-75227.076,93013.745,42576.72,157888.342,19048.872,75112.858,59164.129
0.6720001,09-22-2026 23:40:00:030,-62509.112,-75580.68,94650.965,47106.301,157621.104,17238.872,75155.774,58725.319
0.6760001,09-22-2026 23:40:00:034,-62851.854,-76106.036,80529.938,40117.805,156800.304,10284.663,75375.715,57610.012
0.68,09-22-2026 23:40:00:038,-62868.573,-76176.757,69274.046,30799.81,156361.271,7426.769,75450.817,57262.621
0.684,09-22-2026 23:40:00:042,-62392.078,-75631.195,77255.497,32482.226,156991.188,12952.031,75214.782,58323.077
0.688,09-22-2026 23:40:00:046,-62116.213,-75328.106,93218.397,42576.72,157697.458,19239.398,74925.104,59346.966
0.692,09-22-2026 23:40:00:050,-62333.561,-75671.607,94855.618,47106.301,157468.397,17429.399,74957.29,58981.292
0.696,09-22-2026 23:40:00:054,-62676.303,-76196.963,80939.243,40117.805,156590.331,10570.453,75257.698,57920.835
0.7,09-22-2026 23:40:00:058,-62609.427,-76196.963,69683.351,30929.226,156284.917,7807.822,75418.63,57719.714
0.7040001,09-22-2026 23:40:00:062,-62218.718,-75726.146,77871.198,32662.381,156891.901,13296.338,75241.113,58795.459
0.708,09-22-2026 23:40:00:066,-61962.791,-75404.459,93607.452,42794.426,157655.526,19564.84,75011.069,59859.223
0.712,09-22-2026 23:40:00:070,-62218.718,-75772.101,95221.427,47117.433,157528.255,17703.878,75092.697,59475.086
0.716,09-22-2026 23:40:00:074,-62556.542,-76289.097,81300.894,40092.548,156764.63,10847.704,75411.791,58411.322
0.72,09-22-2026 23:40:00:078,-62474.646,-76277.608,70406.565,31041.253,156552.512,8203.18,75597.31,58204.479
0.724,09-22-2026 23:40:00:082,-62003.739,-75783.59,78476.438,32797.475,157316.137,13590.174,75396.949,59297.792
0.728,09-22-2026 23:40:00:086,-61727.337,-75507.858,94010.945,42794.426,158207.033,19858.676,75137.222,60332.007
0.7320001,09-22-2026 23:40:00:090,-61952.554,-75875.5,95423.173,46982.339,158164.609,17997.714,75211.43,59977.419
0.7360001,09-22-2026 23:40:00:094,-62228.955,-76358.029,81502.641,39957.454,157655.526,11239.485,75582.469,59002.302
0.74,09-22-2026 23:40:00:098,-62177.77,-76403.985,70608.311,30771.065,157655.526,8497.016,75782.83,58825.008
0.744,09-22-2026 23:40:00:102,-61758.049,-75955.922,78678.185,32527.287,158673.693,13981.955,75619.572,59888.772
0.748,09-22-2026 23:40:00:106,-61450.936,-75668.702,94414.439,42524.239,159903.978,20250.457,75382.108,60863.89
0.752,09-22-2026 23:40:00:110,-61655.678,-76070.809,96028.414,46847.245,160158.519,18487.441,75441.474,60302.458
0.756,09-22-2026 23:40:00:114,-61983.265,-76622.272,81906.135,39687.266,159776.707,11533.321,75723.463,59031.851
0.7600001,09-22-2026 23:40:00:118,-62003.739,-76645.249,70810.058,30365.784,159691.859,8790.852,75894.141,58618.165
0.7640001,09-22-2026 23:40:00:122,-61645.441,-76128.253,79081.679,32257.099,160710.026,14373.736,75678.939,59534.184
0.768,09-22-2026 23:40:00:126,-61420.224,-75818.056,94817.933,42389.145,161685.769,20642.238,75404.37,60361.556
0.772,09-22-2026 23:40:00:130,-61696.626,-76197.186,96028.414,46712.151,161643.346,18683.331,75500.84,59741.027
0.776,09-22-2026 23:40:00:134,-62054.925,-76748.648,81704.388,39417.078,160837.297,11631.267,75797.671,58381.773
0.78,09-22-2026 23:40:00:138,-61993.502,-76771.626,70608.311,30095.596,160497.908,8790.852,75946.087,57908.989
0.784,09-22-2026 23:40:00:142,-61543.07,-76266.119,78879.932,31986.911,161176.686,14275.791,75701.201,58795.459
0.788,09-22-2026 23:40:00:146,-61256.431,-75955.922,94616.186,42254.051,161940.311,20544.293,75419.211,59563.733
0.7920001,09-22-2026 23:40:00:150,-61522.595,-76312.074,96028.414,46577.057,161643.346,18487.441,75485.998,58884.106
0.7960001,09-22-2026 23:40:00:154,-61911.605,-76840.559,81704.388,39281.984,160540.332,11337.431,75797.671,57554.401
0.8,09-22-2026 23:40:00:158,-61921.842,-76863.536,70406.565,29960.502,159946.401,8497.016,75953.508,57111.166
0.804,09-22-2026 23:40:00:162,-61505.742,-76339.209,78803.981,31870.458,160377.879,14007.525,75744.116,58022.089
0.808,09-22-2026 23:40:00:166,-61239.756,-76041.26,94658.788,42085.742,160835.196,20245.674,75490.648,58902.748
0.812,09-22-2026 23:40:00:170,-61490.543,-76416.099,96081.656,46503.162,160316.904,18265.309,75552.607,58374.352
0.816,09-22-2026 23:40:00:174,-61878.122,-76963.94,81649.716,39048.766,159127.88,11135.997,75851.137,57123.817
0.8200001,09-22-2026 23:40:00:178,-61862.923,-76963.94,70470.043,29661.748,158518.125,8264.468,76014.483,56789.167
0.8240001,09-22-2026 23:40:00:182,-61429.746,-76416.099,78803.981,31594.37,158975.441,13908.507,75828.606,57810.731
0.8280001,09-22-2026 23:40:00:186,-61163.761,-76050.872,94658.788,41947.698,159615.685,20245.674,75580.77,58797.068
0.832,09-22-2026 23:40:00:190,-61399.348,-76368.043,96081.656,46365.118,159310.807,18265.309,75665.259,58339.126
0.836,09-22-2026 23:40:00:194,-61809.726,-76858.217,81852.982,39048.766,158335.198,11036.978,75997.585,57159.043
0.84,09-22-2026 23:40:00:198,-61855.324,-76838.994,70673.31,29661.748,157877.881,8264.468,76160.932,56842.006
0.844,09-22-2026 23:40:00:202,-61467.744,-76233.485,79007.248,31732.414,158548.612,13809.489,75918.728,57898.797
0.848,09-22-2026 23:40:00:206,-61239.756,-75820.202,94862.055,42223.786,159341.295,20245.674,75608.933,58885.134
0.8520001,09-22-2026 23:40:00:210,-61596.937,-76146.984,96284.923,46641.206,158975.441,18166.291,75653.994,58356.739
0.8560001,09-22-2026 23:40:00:214,-62068.112,-76675.603,81852.982,39324.855,157969.345,10937.96,75946.891,57141.43
0.86,09-22-2026 23:40:00:218,-62083.311,-76665.992,70673.31,29799.793,157512.028,8066.432,76098.973,56842.006
0.864,09-22-2026 23:40:00:222,-61680.533,-76118.15,79210.514,32008.503,158182.759,13710.471,75856.769,57916.41
0.868,09-22-2026 23:40:00:226,-61444.946,-75781.757,95065.322,42499.875,158944.954,20047.637,75552.607,58867.521
0.872,09-22-2026 23:40:00:230,-61748.929,-76185.429,96284.923,47055.339,158640.076,17869.236,75575.137,58303.9
0.876,09-22-2026 23:40:00:234,-62128.909,-76704.437,81649.716,39462.899,157664.467,10541.887,75868.034,57070.977
0.8800001,09-22-2026 23:40:00:238,-62083.311,-76685.214,70470.043,30075.881,157268.126,7769.377,76008.85,56771.553
0.8840001,09-22-2026 23:40:00:242,-61596.937,-76118.15,79007.248,32146.547,157969.345,13512.434,75755.382,57810.731
0.8880001,09-22-2026 23:40:00:246,-61300.553,-75743.312,95065.322,42775.964,158762.027,19849.601,75445.586,58779.455
0.892,09-22-2026 23:40:00:250,-61543.74,-76108.539,96284.923,47193.384,158396.174,17770.218,75490.648,58198.221
0.896,09-22-2026 23:40:00:254,-61900.921,-76627.547,81649.716,39738.988,157390.077,10442.869,75777.912,56930.072
0.9,09-22-2026 23:40:00:258,-61878.122,-76569.879,70470.043,30213.926,156963.248,7670.359,75963.789,56665.874
0.904,09-22-2026 23:40:00:262,-61440.162,-75924.495,78958.387,32429.297,157674.302,13348.551,75770.268,57770.274
0.9080001,09-22-2026 23:40:00:266,-61156.474,-75482.869,94987.538,43031.176,158484.329,19798.192,75480.589,58758.668
0.9120001,09-22-2026 23:40:00:270,-61447.628,-75793.201,96220.549,47574.839,158160.318,17648.312,75538.525,58183.602
0.9160001,09-22-2026 23:40:00:274,-61843.298,-76282.57,81629.912,39864.381,157147.784,10319.175,75866.827,56961.588
0.92,09-22-2026 23:40:00:278,-61828.367,-76246.762,70121.803,30363.995,156722.52,7582.963,76030.979,56692.026
0.924,09-22-2026 23:40:00:282,-61410.3,-75661.907,78752.885,32566.983,157390.792,13348.551,75794.408,57770.274
0.928,09-22-2026 23:40:00:286,-61149.008,-75291.896,94987.538,43306.55,158180.569,19798.192,75504.729,58812.581
0.932,09-22-2026 23:40:00:290,-61455.093,-75649.971,96220.549,47712.525,157856.558,17648.312,75577.149,58309.398
0.936,09-22-2026 23:40:00:294,-61865.695,-76163.212,81424.41,40002.068,156823.773,10319.175,75881.311,57087.384
0.9400001,09-22-2026 23:40:00:298,-61858.229,-76115.468,70121.803,30363.995,156358.007,7582.963,76030.979,56799.851
0.9440001,09-22-2026 23:40:00:302,-61402.835,-75482.869,78752.885,32704.67,157107.283,13348.551,75789.58,57896.07
0.9480001,09-22-2026 23:40:00:306,-61141.543,-75100.923,94987.538,43444.236,157917.31,19895.914,75490.245,58866.493
0.952,09-22-2026 23:40:00:310,-61410.3,-75470.933,96220.549,47850.212,157633.8,17648.312,75548.181,58309.398
0.956,09-22-2026 23:40:00:314,-61783.574,-76019.982,81424.41,40139.754,156641.517,10319.175,75876.483,57105.354
0.96,09-22-2026 23:40:00:318,-61716.385,-76008.046,70121.803,30639.369,156256.754,7582.963,76035.807,56853.763
0.964,09-22-2026 23:40:00:322,-61246.06,-75423.19,78752.885,32842.357,157006.029,13446.273,75789.58,57949.982
0.9680001,09-22-2026 23:40:00:326,-60954.906,-75065.115,94987.538,43581.923,157836.307,19895.914,75499.901,58938.376
0.9720001,09-22-2026 23:40:00:330,-61260.991,-75447.062,96015.048,47850.212,157471.795,17648.312,75562.665,58381.281
0.9760001,09-22-2026 23:40:00:334,-61679.058,-75924.495,81218.908,40139.754,156499.762,10319.175,75823.376,57159.267
0.98,09-22-2026 23:40:00:338,-61671.592,-75840.944,70121.803,30639.369,156033.996,7680.685,75953.731,56871.734
0.984,09-22-2026 23:40:00:342,-61208.732,-75160.602,78752.885,33117.73,156803.522,13543.995,75731.644,58003.894
0.988,09-22-2026 23:40:00:346,-60917.578,-74766.719,94987.538,43719.61,157633.8,19993.635,75422.654,58974.318
0.992,09-22-2026 23:40:00:350,-61216.198,-75136.73,96015.048,47850.212,157289.539,17843.755,75499.901,58399.252
0.9960001,09-22-2026 23:40:00:354,-61604.403,-75614.163,81013.406,40139.754,156277.005,10514.618,75823.376,57177.238
1,09-22-2026 23:40:00:358,-61514.817,-75530.613,70121.803,30639.369,155912.492,7973.851,75992.355,56943.617
1.004,09-22-2026 23:40:00:362,-61010.472,-74900.964,78756.237,33099.089,156665.836,14003.323,75790.742,58089.099
1.008,09-22-2026 23:40:00:366,-60741.089,-74505.159,94917.219,43665.832,157550.294,20498.83,75523.192,59077.046
1.012,09-22-2026 23:40:00:370,-61022.185,-74869.716,95966.634,47718.829,157314.438,18262.672,75607.279,58504.037
1.016,09-22-2026 23:40:00:374,-61443.828,-75453.007,80645.183,39757.584,156371.016,10915.296,75974.205,57239.465
1.02,09-22-2026 23:40:00:378,-61408.691,-75432.175,69521.391,30059.341,156135.16,8359.687,76188.246,57022.116
1.024,09-22-2026 23:40:00:382,-60916.774,-74786.389,78546.355,32520.089,157137.547,14429.258,75989.494,58187.894
1.028,09-22-2026 23:40:00:386,-60577.117,-74390.584,94917.219,43231.582,158257.861,21137.732,75737.232,59235.118
1.032,09-22-2026 23:40:00:390,-60846.5,-74807.221,95546.868,47284.579,158316.825,18795.09,75859.541,58662.109
1.036,09-22-2026 23:40:00:394,-61221.294,-75317.6,80435.301,39323.335,157904.078,11341.23,76203.534,57456.813
1.04,09-22-2026 23:40:00:398,-61174.445,-75265.521,69521.391,29914.591,158434.753,8892.105,76348.776,57239.465
1.044,09-22-2026 23:40:00:402,-60694.24,-74671.814,78546.355,32375.34,160262.634,14961.677,76104.158,58385.483
1.048,09-22-2026 23:40:00:406,-60366.295,-74328.089,94917.219,43231.582,162149.478,21563.667,75844.252,59393.189
1.052,09-22-2026 23:40:00:410,-60577.117,-74682.23,95756.751,47429.329,162857.045,19221.025,75943.628,58839.939
1.056,09-22-2026 23:40:00:414,-60940.198,-75244.689,80645.183,39468.085,162503.262,11767.165,76295.266,57634.644
1.06,09-22-2026 23:40:00:418,-60846.5,-75213.441,69731.274,30059.341,162385.334,9211.556,76494.017,57417.295
1.064,09-22-2026 23:40:00:422,-60366.295,-74682.23,78966.12,32664.839,163033.937,15281.128,76287.621,58523.796
1.068,09-22-2026 23:40:00:426,-60014.926,-74317.673,95336.985,43521.082,163623.576,21883.118,76004.782,59531.502
1.072,09-22-2026 23:40:00:430,-60260.884,-74713.477,96176.517,47718.829,162857.045,19540.476,76073.581,58958.493
1.076,09-22-2026 23:40:00:434,-60659.103,-75286.353,81064.949,39902.334,161265.02,12086.616,76364.064,57713.679
1.08,09-22-2026 23:40:00:438,-60623.966,-75286.353,69941.156,30638.341,160262.634,9424.524,76486.373,57437.054
1.084,09-22-2026 23:40:00:442,-60202.323,-74775.973,79385.886,33388.589,160557.453,15494.095,76203.534,58523.796
1.088,09-22-2026 23:40:00:446,-59956.364,-74515.575,95756.751,44244.831,160911.237,21883.118,75890.118,59491.984
1.092,09-22-2026 23:40:00:450,-60260.884,-75005.123,96176.517,48297.828,160144.706,19433.992,75974.205,58899.216
1.096,09-22-2026 23:40:00:454,-60694.24,-75619.662,81064.949,40481.334,158670.608,11873.649,76279.977,57634.644
1.1,09-22-2026 23:40:00:458,-60705.952,-75640.494,70360.922,31217.34,157904.078,9318.04,76402.286,57377.777
1.104,09-22-2026 23:40:00:462,-60813.017,-74360.499,79565.371,33871.789,155690.674,14632.301,75742.731,58267.511
1.108,09-22-2026 23:40:00:466,-60562.23,-74043.998,95831.808,44531.157,156486.262,20860.57,75508.305,59303.604
1.112,09-22-2026 23:40:00:470,-60894.154,-74508.199,95831.808,48084.28,156077.716,18205.898,75637.856,58669.261
1.116,09-22-2026 23:40:00:474,-61277.71,-75014.6,80183.083,40021.424,155110.109,10650.293,75995.663,57379.431
1.12,09-22-2026 23:40:00:478,-61226.077,-74909.1,69887.87,30865.3,154809.076,8404.032,76137.552,57125.694
1.124,09-22-2026 23:40:00:482,-60776.137,-74318.299,79565.371,33735.13,155626.167,14428.096,75896.958,58182.932
1.128,09-22-2026 23:40:00:486,-60517.974,-73980.698,95831.808,44394.498,156486.262,20758.467,75637.856,59092.156
1.132,09-22-2026 23:40:00:490,-60827.769,-74381.599,95831.808,47947.621,156185.228,18103.795,75755.069,58436.669
1.136,09-22-2026 23:40:00:494,-61226.077,-74919.65,80183.083,39884.766,155239.124,10548.191,76082.03,57146.839
1.14,09-22-2026 23:40:00:498,-61159.693,-74888,69887.87,30865.3,154916.588,8199.827,76199.243,56871.957
1.144,09-22-2026 23:40:00:502,-60672.872,-74349.949,79771.275,33735.13,155712.176,14325.993,75952.479,57971.484
1.148,09-22-2026 23:40:00:506,-60370.452,-74043.998,95831.808,44394.498,156550.769,20554.262,75668.702,58901.853
1.152,09-22-2026 23:40:00:510,-60695,-74497.649,95625.904,47947.621,156163.726,17797.487,75761.238,58204.077
1.156,09-22-2026 23:40:00:514,-61108.06,-75025.15,80183.083,39884.766,155174.617,10343.985,76082.03,56956.536
1.16,09-22-2026 23:40:00:518,-61071.18,-74982.95,70093.774,30865.3,154809.076,8097.724,76174.566,56745.089
1.164,09-22-2026 23:40:00:522,-60628.615,-74434.349,79977.179,33871.789,155540.157,14121.787,75896.958,57844.616
1.168,09-22-2026 23:40:00:526,-60399.957,-74276.099,95831.808,44394.498,156185.228,20247.954,75619.349,58732.695
1.172,09-22-2026 23:40:00:530,-60731.88,-74803.6,95419.999,47810.963,155690.674,17491.179,75742.731,58098.353
1.176,09-22-2026 23:40:00:534,-61108.06,-75320.551,79977.179,39748.107,154637.057,10037.677,76075.861,56893.102
1.18,09-22-2026 23:40:00:538,-61019.547,-75225.601,69887.87,30865.3,154271.517,7893.519,76199.243,56681.655
1.184,09-22-2026 23:40:00:542,-60562.23,-74624.249,79771.275,33735.13,154959.593,13917.582,75983.325,57760.037
1.188,09-22-2026 23:40:00:546,-60340.948,-74307.749,95831.808,44257.84,155647.669,20043.748,75718.054,58648.116
1.192,09-22-2026 23:40:00:550,-60665.495,-74729.75,95214.095,47674.304,155217.621,17286.973,75847.605,58034.919
1.196,09-22-2026 23:40:00:554,-61041.675,-75236.151,79565.371,39611.449,154207.01,10037.677,76186.904,56829.668
1.2,09-22-2026 23:40:00:558,-61034.299,-75183.401,69681.966,30728.642,153819.967,7893.519,76291.779,56618.22
1.204,09-22-2026 23:40:00:562,-60610.868,-74608.29,79545.478,33571.381,154500.846,13969.125,76069.066,57716.63
1.208,09-22-2026 23:40:00:566,-60354.002,-74292.639,95665.153,44342.687,155236.486,20151.036,75838.754,58737.121
1.212,09-22-2026 23:40:00:570,-60678.862,-74731.806,95246.46,47751.328,154825.393,17414.781,75939.515,58128.751
1.216,09-22-2026 23:40:00:574,-61124.6,-75294.489,79545.478,39570.59,153765.205,9915.413,76277.787,56931.637
1.22,09-22-2026 23:40:00:578,-61079.271,-75225.869,69496.849,30571.777,153419.021,7888.556,76428.929,56833.512
1.224,09-22-2026 23:40:00:582,-60588.203,-74567.118,79545.478,33707.727,154241.208,14070.468,76162.63,58011.002
1.228,09-22-2026 23:40:00:586,-60391.776,-74278.915,95874.5,44342.687,154890.302,20252.379,75881.937,58933.369
1.232,09-22-2026 23:40:00:590,-60716.636,-74718.082,95246.46,47751.328,154414.3,17414.781,76011.488,58325
1.236,09-22-2026 23:40:00:594,-61094.381,-75212.145,79545.478,39570.59,153375.748,10016.755,76356.957,57127.885
1.24,09-22-2026 23:40:00:598,-60996.167,-75088.629,69496.849,30571.777,153094.474,7989.899,76493.704,57010.136
1.244,09-22-2026 23:40:00:602,-60565.538,-74512.222,79754.824,33707.727,153808.478,14171.811,76248.998,58148.376
1.248,09-22-2026 23:40:00:606,-60331.337,-74196.571,95874.5,44479.033,154522.482,20353.722,75989.896,59109.993
1.252,09-22-2026 23:40:00:610,-60648.642,-74635.738,95246.46,47751.328,154089.752,17516.123,76141.039,58501.623
1.256,09-22-2026 23:40:00:614,-61018.832,-75170.973,79545.478,39570.59,153094.474,10118.098,76493.704,57343.758
1.26,09-22-2026 23:40:00:618,-60943.283,-75102.353,69496.849,30571.777,152769.927,8091.242,76623.255,57206.384
1.264,09-22-2026 23:40:00:622,-60474.88,-74457.326,79754.824,33707.727,153548.84,14374.496,76356.957,58344.624
1.268,09-22-2026 23:40:00:626,-60210.459,-73990.711,96083.846,44479.033,154306.117,20556.408,76105.052,59266.992
1.272,09-22-2026 23:40:00:630,-60520.209,-74237.743,95455.807,47887.674,153895.024,17820.152,76241.8,58658.622
1.276,09-22-2026 23:40:00:634,-60905.509,-74663.186,79754.824,39570.59,152921.382,10422.127,76594.466,57461.507
1.28,09-22-2026 23:40:00:638,-60837.515,-74539.67,69706.195,30571.777,152596.835,8395.271,76731.214,57284.884
1.284,09-22-2026 23:40:00:642,-60414.441,-73922.092,79964.17,33707.727,153397.385,14577.182,76479.31,58403.499
1.288,09-22-2026 23:40:00:646,-60165.129,-73551.544,96083.846,44615.378,154176.298,20759.093,76213.011,59325.866
1.292,09-22-2026 23:40:00:650,-60482.435,-73935.816,95665.153,47887.674,153765.205,18022.837,76335.365,58678.247
1.296,09-22-2026 23:40:00:654,-60867.734,-74429.879,79964.17,39706.935,152769.927,10624.812,76652.044,57461.507
1.3,09-22-2026 23:40:00:658,-60845.069,-74320.087,69915.541,30844.469,152488.652,8597.956,76752.806,57304.508
1.304,09-22-2026 23:40:00:662,-60441.307,-73678.279,80218.176,34067.232,153288.353,14876.516,76484.138,58421.47
1.308,09-22-2026 23:40:00:666,-60232.453,-73380.375,96170.616,44862.589,154025.826,21048.906,76192.314,59326.268
1.312,09-22-2026 23:40:00:670,-60519.628,-73816.591,95532.518,48184.237,153628.725,18161.821,76283.509,58668.233
1.316,09-22-2026 23:40:00:674,-60878.597,-74295.366,79792.777,40018.519,152645.427,10794.775,76593.572,57483.769
1.32,09-22-2026 23:40:00:678,-60813.33,-74146.414,70008.614,31160.79,152380.693,8903.236,76703.006,57335.711
1.324,09-22-2026 23:40:00:682,-60389.094,-73539.966,80218.176,34344.037,153155.986,15075.626,76435.501,58454.372
1.328,09-22-2026 23:40:00:686,-60147.606,-73210.144,96383.315,45139.393,153931.278,21248.015,76155.836,59375.621
1.332,09-22-2026 23:40:00:690,-60493.521,-73625.082,95532.518,48461.041,153496.358,18360.93,76277.429,58717.586
1.336,09-22-2026 23:40:00:694,-60898.177,-74135.774,79792.777,40018.519,152494.151,10894.33,76623.97,57483.769
1.34,09-22-2026 23:40:00:698,-60826.383,-74029.38,70008.614,31022.388,152229.417,8903.236,76727.325,57352.162
1.344,09-22-2026 23:40:00:702,-60356.46,-73401.654,80430.875,34482.439,153080.348,15175.18,76429.421,58470.822
1.348,09-22-2026 23:40:00:706,-60147.606,-73103.75,96596.014,45277.795,153798.911,21248.015,76149.756,59359.17
1.352,09-22-2026 23:40:00:710,-60480.468,-73529.327,95745.217,48461.041,153363.991,18261.375,76277.429,58717.586
1.356,09-22-2026 23:40:00:714,-60898.177,-74040.019,79792.777,39880.117,152323.965,10794.775,76611.811,57483.769
1.36,09-22-2026 23:40:00:718,-60832.91,-73933.625,69795.915,30883.986,152021.411,8803.682,76709.086,57352.162
1.364,09-22-2026 23:40:00:722,-60376.04,-73316.538,80218.176,34205.634,152796.704,15075.626,76429.421,58487.273
1.368,09-22-2026 23:40:00:726,-60114.972,-72944.158,96596.014,45277.795,153609.816,21248.015,76155.836,59408.523
1.372,09-22-2026 23:40:00:730,-60480.468,-73401.654,95745.217,48461.041,153137.076,18261.375,76295.668,58717.586
1.376,09-22-2026 23:40:00:734,-60904.704,-73944.265,79792.777,39880.117,152115.959,10595.666,76611.811,57467.318
1.38,09-22-2026 23:40:00:738,-60832.91,-73837.87,69795.915,30883.986,151813.406,8604.572,76709.086,57335.711
1.384,09-22-2026 23:40:00:742,-60362.987,-73242.062,80430.875,34344.037,152645.427,15075.626,76447.66,58503.724
1.388,09-22-2026 23:40:00:746,-60134.552,-72965.437,96808.713,45416.197,153439.629,21248.015,76216.632,59424.974
1.392,09-22-2026 23:40:00:750,-60532.681,-73476.13,95745.217,48461.041,152910.161,18062.266,76399.023,58684.684
1.396,09-22-2026 23:40:00:754,-60943.864,-73965.543,79580.078,39880.117,151907.954,10496.111,76782.042,57450.868
1.4,09-22-2026 23:40:00:758,-60924.284,-73827.231,69795.915,30883.986,151624.31,8604.572,76921.875,57335.711
1.404,09-22-2026 23:40:00:762,-60494.594,-73215.642,80408.166,34338.493,152432.818,15049.698,76663.622,58496.259
1.408,09-22-2026 23:40:00:766,-60301.251,-72930.881,96661.639,45427.641,153157.819,21160.709,76392.183,59425.644
1.412,09-22-2026 23:40:00:770,-60664.736,-73379.928,95806.193,48656.127,152688.7,18055.113,76522.002,58732.83
1.416,09-22-2026 23:40:00:774,-61136.491,-73938.498,79552.72,39953.251,151622.522,10441.394,76876.053,57482.384
1.42,09-22-2026 23:40:00:778,-61090.089,-73818.022,69715.091,31110.007,151345.316,8537.964,76999.972,57397.894
1.424,09-22-2026 23:40:00:782,-60649.268,-73215.642,80408.166,34619.231,152155.611,15049.698,76722.631,58563.85
1.428,09-22-2026 23:40:00:786,-60440.458,-72887.072,96661.639,45568.01,152880.612,21160.709,76409.885,59459.44
1.432,09-22-2026 23:40:00:790,-60803.942,-73336.118,95592.331,48796.496,152390.17,18055.113,76527.903,58749.727
1.436,09-22-2026 23:40:00:794,-61206.095,-73872.784,79552.72,40093.62,151323.992,10441.394,76887.855,57499.281
1.44,09-22-2026 23:40:00:798,-61128.758,-73828.974,69501.229,31110.007,151025.462,8537.964,77005.872,57380.996
1.444,09-22-2026 23:40:00:802,-60649.268,-73270.404,80194.304,34619.231,151857.081,14949.517,76716.73,58530.055
1.448,09-22-2026 23:40:00:806,-60378.588,-72985.643,96661.639,45708.379,152603.406,21160.709,76445.291,59442.542
1.452,09-22-2026 23:40:00:810,-60711.138,-73588.022,95592.331,48796.496,152134.288,18055.113,76581.01,58732.83
1.456,09-22-2026 23:40:00:814,-61105.557,-74278.021,79338.858,40093.62,151089.433,10341.213,76946.864,57465.486
1.46,09-22-2026 23:40:00:818,-60981.817,-74190.402,69501.229,31110.007,150812.227,8537.964,77064.881,57364.098
1.464,09-22-2026 23:40:00:822,-60494.594,-73577.07,80194.304,34619.231,151643.846,15049.698,76799.342,58530.055
1.468,09-22-2026 23:40:00:826,-60262.583,-73270.404,96661.639,45848.748,152411.494,21260.89,76498.398,59442.542
1.472,09-22-2026 23:40:00:830,-60641.534,-73752.308,95592.331,48936.865,151942.376,18155.294,76628.217,58749.727
1.476,09-22-2026 23:40:00:834,-61059.154,-74278.021,79338.858,40233.989,150876.197,10341.213,76994.071,57499.281
1.48,09-22-2026 23:40:00:838,-60958.616,-74135.64,69501.229,31110.007,150577.667,8537.964,77129.79,57414.792
1.484,09-22-2026 23:40:00:842,-60448.192,-73489.451,80194.304,34759.6,151473.257,15049.698,76840.648,58614.544
1.488,09-22-2026 23:40:00:846,-60223.914,-73193.738,96661.639,45848.748,152219.582,21260.89,76545.605,59510.134
1.492,09-22-2026 23:40:00:850,-60610.6,-73686.594,95592.331,48936.865,151750.463,18155.294,76669.523,58783.523
1.496,09-22-2026 23:40:00:854,-61043.687,-74245.164,79338.858,40233.989,150705.609,10341.213,77029.476,57516.179
1.5,09-22-2026 23:40:00:858,-60966.35,-74102.783,69501.229,31110.007,150449.726,8537.964,77141.592,57397.894
1.504,09-22-2026 23:40:00:862,-60480.065,-73473.179,80206.687,34767.557,151286.754,15047.686,76881.82,58620.892
1.508,09-22-2026 23:40:00:866,-60247.116,-73176.527,96460.607,45796.802,152043.405,21263.304,76594.556,59573.032
1.512,09-22-2026 23:40:00:870,-60643.993,-73706.263,95405.158,48829.844,151502.94,18106.165,76712.841,58846.823
1.516,09-22-2026 23:40:00:874,-61075.382,-74235.999,79151.238,40144.314,150458.041,10410.638,77056.432,57620.339
1.52,09-22-2026 23:40:00:878,-60980.476,-74098.268,69652.193,31320.918,150223.839,8733.408,77169.085,57555.787
1.524,09-22-2026 23:40:00:882,-60531.832,-73504.963,80206.687,34905.423,151052.553,15146.347,76876.188,58717.72
1.528,09-22-2026 23:40:00:886,-60316.138,-73208.311,96249.517,45796.802,151809.204,21164.643,76594.556,59605.308
1.532,09-22-2026 23:40:00:890,-60687.132,-73663.884,94771.888,48691.979,151358.816,18007.504,76707.208,58879.099
1.536,09-22-2026 23:40:00:894,-61109.893,-74193.621,78940.148,40006.449,150313.917,10509.299,77056.432,57636.476
1.54,09-22-2026 23:40:00:898,-61023.615,-74077.079,69863.283,31458.784,150079.715,8930.729,77163.452,57571.925
1.544,09-22-2026 23:40:00:902,-60609.482,-73483.774,80417.777,35043.288,150926.444,15146.347,76904.351,58701.582
1.548,09-22-2026 23:40:00:906,-60419.671,-73144.743,96038.427,45658.937,151719.126,20967.322,76639.617,59556.894
1.552,09-22-2026 23:40:00:910,-60807.921,-73557.937,94349.708,48416.248,151304.77,17810.183,76774.8,58846.823
1.556,09-22-2026 23:40:00:914,-61187.543,-73981.726,78729.058,39868.583,150385.979,10509.299,77095.86,57652.614
1.56,09-22-2026 23:40:00:918,-61109.893,-73833.4,69863.283,31458.784,150187.808,9029.39,77219.779,57588.063
1.564,09-22-2026 23:40:00:922,-60738.899,-73293.069,80417.777,35043.288,150944.46,15146.347,76988.84,58701.582
1.568,09-22-2026 23:40:00:926,-60531.832,-73007.011,95616.248,45521.071,151701.111,20868.662,76757.902,59573.032
1.572,09-22-2026 23:40:00:930,-60859.687,-73441.395,93927.529,48140.517,151268.739,17711.522,76876.188,58895.237
1.576,09-22-2026 23:40:00:934,-61247.937,-73886.374,78517.968,39592.852,150313.917,10509.299,77180.35,57717.166
1.58,09-22-2026 23:40:00:938,-61187.543,-73727.453,69863.283,31320.918,150079.715,9128.05,77281.738,57620.339
1.584,09-22-2026 23:40:00:942,-60790.665,-73155.337,80417.777,35043.288,150800.336,15245.007,77039.534,58717.72
1.588,09-22-2026 23:40:00:946,-60609.482,-72890.469,95616.248,45521.071,151466.909,20868.662,76786.065,59556.894
1.592,09-22-2026 23:40:00:950,-60954.593,-73314.258,93927.529,48140.517,150998.506,17711.522,76904.351,58862.961
1.596,09-22-2026 23:40:00:954,-61342.843,-73791.021,78306.878,39592.852,150007.653,10410.638,77225.411,57684.89
1.6,09-22-2026 23:40:00:958,-61308.332,-73674.479,69652.193,31320.918,149755.436,9029.39,77309.901,57620.339
1.604,09-22-2026 23:40:00:962,-60964.025,-73111.93,80290.148,34989.376,150501.18,15222.656,77058.399,58743.067
1.608,09-22-2026 23:40:00:966,-60790.039,-72828.689,95820.14,45605.292,151206.064,20965.266,76812.574,59618.54
1.612,09-22-2026 23:40:00:970,-61125.584,-73283.592,93956.541,48292.866,150696.981,17711.12,76938.102,58914.728
1.616,09-22-2026 23:40:00:974,-61467.342,-73798.576,78219.483,39692.63,149678.814,10437.147,77257.151,57713.098
1.62,09-22-2026 23:40:00:978,-61355.494,-73721.328,69522.687,31226.773,149443.853,9001.495,77372.217,57695.932
1.624,09-22-2026 23:40:00:982,-60932.956,-73189.178,80290.148,34989.376,150207.478,15318.366,77105.472,58811.731
1.628,09-22-2026 23:40:00:986,-60734.115,-72931.686,95820.14,45739.671,150892.782,21060.976,76849.187,59670.038
1.632,09-22-2026 23:40:00:990,-61075.874,-73386.589,93956.541,48292.866,150403.279,17806.83,76985.175,58983.393
1.636,09-22-2026 23:40:00:994,-61467.342,-73918.739,78219.483,39558.251,149345.952,10437.147,77309.454,57781.763
1.64,09-22-2026 23:40:00:998,-61374.135,-73824.325,69522.687,31226.773,149091.411,9001.495,77403.599,57730.264
1.644,09-22-2026 23:40:01:002,-60939.17,-73249.259,80290.148,34989.376,149913.776,15318.366,77157.775,58897.562
1.648,09-22-2026 23:40:01:006,-60752.757,-72948.852,95820.14,45739.671,150657.821,21060.976,76891.029,59773.035
1.652,09-22-2026 23:40:01:010,-61131.798,-73403.755,93956.541,48292.866,150168.318,17806.83,77021.787,59052.057
1.656,09-22-2026 23:40:01:014,-61510.838,-73892.99,78219.483,39558.251,149189.311,10341.437,77351.296,57867.594
1.66,09-22-2026 23:40:01:018,-61411.418,-73764.244,69522.687,31226.773,148973.93,9001.495,77445.442,57833.261
1.664,09-22-2026 23:40:01:022,-60964.025,-73172.012,80497.215,35123.755,149796.295,15318.366,77168.235,58983.393
1.668,09-22-2026 23:40:01:026,-60790.039,-72923.103,95820.14,45739.671,150481.6,20965.266,76906.72,59824.533
1.672,09-22-2026 23:40:01:030,-61138.011,-73395.172,93956.541,48292.866,150011.677,17615.41,77032.247,59120.722
1.676,09-22-2026 23:40:01:034,-61523.266,-73918.739,78219.483,39558.251,149013.09,10245.727,77340.836,57919.092
1.68,09-22-2026 23:40:01:038,-61405.204,-73798.576,69522.687,31226.773,148817.289,8905.784,77440.211,57901.926
1.684,09-22-2026 23:40:01:042,-60970.239,-73214.927,80290.148,35123.755,149620.074,15222.656,77178.696,59034.891
1.688,09-22-2026 23:40:01:046,-60752.757,-72905.937,95820.14,45874.05,150344.539,20965.266,76901.49,59876.032
1.692,09-22-2026 23:40:01:050,-61100.729,-73335.09,93956.541,48292.866,149874.616,17615.41,77037.478,59155.054
1.696,09-22-2026 23:40:01:054,-61461.128,-73798.576,78219.483,39692.63,148954.35,10341.437,77361.757,57987.756
1.7,09-22-2026 23:40:01:058,-61386.563,-73712.745,69522.687,31361.151,148719.388,8905.784,77471.593,57953.424
1.704,09-22-2026 23:40:01:062,-60957.141,-73196.42,80444.778,35222.907,149518.955,15216.397,77209.005,59119.246
1.708,09-22-2026 23:40:01:066,-60759.999,-72959.849,95810.708,45838.823,150240.737,21049.264,76952.496,59960.119
1.712,09-22-2026 23:40:01:070,-61108.284,-73416.093,94149.526,48392.018,149813.014,17798.158,77101.001,59287.421
1.716,09-22-2026 23:40:01:074,-61476.283,-73897.683,78160.653,39791.782,148890.737,10435.359,77418.262,58091.513
1.72,09-22-2026 23:40:01:078,-61430.283,-73796.296,69439.449,31325.925,148690.241,9001.047,77526.266,58035.455
1.724,09-22-2026 23:40:01:082,-61022.855,-73221.767,80237.13,35088.528,149532.321,15312.018,77283.258,59175.305
1.728,09-22-2026 23:40:01:086,-60805.999,-72909.155,95603.06,45704.445,150320.935,21144.884,77026.749,60053.549
1.732,09-22-2026 23:40:01:090,-61121.426,-73314.705,93941.879,48392.018,149973.41,17893.778,77161.753,59399.537
1.736,09-22-2026 23:40:01:094,-61495.997,-73821.643,78160.653,39657.404,149037.766,10530.98,77506.015,58241.002
1.74,09-22-2026 23:40:01:098,-61397.426,-73694.908,69439.449,31325.925,148877.37,9192.289,77620.769,58241.002
1.744,09-22-2026 23:40:01:102,-60976.855,-73120.379,80029.482,34954.15,149679.351,15503.259,77371.01,59399.537
1.748,09-22-2026 23:40:01:106,-60753.427,-72824.666,95395.412,45570.066,150387.767,21144.884,77114.502,60240.41
1.752,09-22-2026 23:40:01:110,-61075.426,-73247.114,93734.231,47988.882,149919.945,17893.778,77236.006,59549.026
1.756,09-22-2026 23:40:01:114,-61403.997,-73754.051,78160.653,39523.025,148984.301,10626.6,77560.017,58390.49
1.76,09-22-2026 23:40:01:118,-61292.283,-73669.562,69647.097,31325.925,148797.172,9192.289,77661.27,58353.118
1.764,09-22-2026 23:40:01:122,-60865.141,-73137.277,80237.13,34954.15,149559.054,15312.018,77411.512,59474.282
1.768,09-22-2026 23:40:01:126,-60661.427,-72883.808,94980.117,45301.309,150214.005,20762.401,77175.254,60296.468
1.772,09-22-2026 23:40:01:130,-60976.855,-73314.705,92903.64,47585.746,149813.014,17606.916,77310.258,59642.456
1.776,09-22-2026 23:40:01:134,-61357.997,-73787.847,77745.357,39119.889,148930.836,10626.6,77620.769,58539.979
1.78,09-22-2026 23:40:01:138,-61279.14,-73652.664,69854.745,31325.925,148823.905,9383.531,77708.522,58521.293
1.784,09-22-2026 23:40:01:142,-60917.713,-73111.93,80237.13,35088.528,149572.42,15312.018,77506.015,59605.084
1.788,09-22-2026 23:40:01:146,-60733.713,-72833.115,94772.469,45166.93,150254.104,20571.16,77310.258,60408.585
1.792,09-22-2026 23:40:01:150,-61075.426,-73238.665,92488.345,47316.989,149893.212,17511.295,77438.513,59791.945
1.796,09-22-2026 23:40:01:154,-61463.14,-73686.46,77745.357,39119.889,149117.964,10722.221,77715.272,58689.467
1.8,09-22-2026 23:40:01:158,-61463.14,-73627.317,70062.392,31460.304,148957.568,9479.151,77809.775,58670.781
1.804,09-22-2026 23:40:01:162,-61102.561,-73117.161,80403.427,35234.172,149708.497,15475.409,77588.314,59771.962
1.808,09-22-2026 23:40:01:166,-60928.218,-72873.08,94687.935,45215.344,150342.169,20707.505,77355.767,60551.323
1.812,09-22-2026 23:40:01:170,-61214.141,-73271.745,92410.695,47344.66,149980.071,17530.876,77483.44,59907.503
1.816,09-22-2026 23:40:01:174,-61555.855,-73768.043,77298.099,38960.476,149147.245,10617.034,77798.063,58823.175
1.82,09-22-2026 23:40:01:178,-61486.117,-73686.683,69638.29,31241.704,149002.406,9495.87,77889.258,58840.118
1.824,09-22-2026 23:40:01:182,-61102.561,-73190.385,80196.405,35101.09,149762.812,15568.839,77643.031,59958.331
1.828,09-22-2026 23:40:01:186,-60935.192,-72913.76,95101.979,45481.508,150432.694,20987.796,77392.245,60754.634
1.832,09-22-2026 23:40:01:190,-61283.879,-73336.834,92617.717,47610.825,150034.386,17717.736,77519.918,60076.929
1.836,09-22-2026 23:40:01:194,-61681.382,-73857.54,77298.099,39093.559,149147.245,10523.604,77816.302,58924.831
1.84,09-22-2026 23:40:01:198,-61625.592,-73768.043,69431.269,31241.704,148966.196,9309.01,77889.258,58874.003
1.844,09-22-2026 23:40:01:202,-61214.141,-73222.929,80196.405,35234.172,149690.393,15568.839,77624.792,59992.216
1.848,09-22-2026 23:40:01:206,-61025.85,-72913.76,95309.001,45614.591,150324.065,21081.227,77369.446,60805.462
1.852,09-22-2026 23:40:01:210,-61346.643,-73296.153,93031.76,48010.072,149871.442,17811.166,77483.44,60110.815
1.856,09-22-2026 23:40:01:214,-61730.198,-73824.996,77298.099,39226.641,148911.881,10430.173,77816.302,58975.659
1.86,09-22-2026 23:40:01:218,-61590.724,-73743.635,69431.269,31374.786,148785.147,9309.01,77916.617,58941.774
1.864,09-22-2026 23:40:01:222,-61130.456,-73206.657,80610.449,35367.255,149563.658,15662.27,77647.591,60009.159
1.868,09-22-2026 23:40:01:226,-60921.244,-72978.848,95723.044,46013.838,150215.435,21174.657,77392.245,60754.634
1.872,09-22-2026 23:40:01:230,-61290.853,-73434.466,93238.782,48143.154,149744.707,17717.736,77538.157,59992.216
1.876,09-22-2026 23:40:01:234,-61653.487,-73906.356,77712.143,39492.806,148803.252,10430.173,77852.78,58806.233
1.88,09-22-2026 23:40:01:238,-61541.907,-73768.043,69638.29,31507.868,148585.993,9309.01,77934.856,58789.29
1.884,09-22-2026 23:40:01:242,-61074.667,-73165.977,80817.471,35633.419,149328.294,15662.27,77670.39,59890.56
1.888,09-22-2026 23:40:01:246,-60844.533,-72873.08,95723.044,46146.92,149889.547,21081.227,77396.804,60652.978
1.892,09-22-2026 23:40:01:250,-61200.194,-73304.289,93238.782,48143.154,149310.189,17530.876,77524.478,59873.618
1.896,09-22-2026 23:40:01:254,-61569.802,-73759.907,77712.143,39492.806,148368.734,10336.743,77848.22,58704.577
1.9,09-22-2026 23:40:01:258,-61472.17,-73637.867,69845.312,31640.951,148133.37,9309.01,77925.736,58653.749
1.904,09-22-2026 23:40:01:262,-61017.133,-73109.516,80903.57,35846.834,148750.949,15523.331,77632.481,59725.873
1.908,09-22-2026 23:40:01:266,-60783.244,-72868.922,95841.33,46161.359,149179.387,20830.529,77365.154,60456.373
1.912,09-22-2026 23:40:01:270,-61085.351,-73331.603,93205.254,48112.756,148536.73,17325.776,77488.536,59669.681
1.916,09-22-2026 23:40:01:274,-61397.202,-73775.777,77608.475,39470.856,147572.744,10115.997,77781.567,58489.643
1.92,09-22-2026 23:40:01:278,-61270.512,-73609.212,69919.922,31665.269,147358.524,9114.639,77843.258,58452.181
1.924,09-22-2026 23:40:01:282,-60812.481,-73044.741,80903.57,35707.448,147947.627,15323.06,77560.509,59519.834
1.928,09-22-2026 23:40:01:286,-60568.847,-72757.879,95621.657,46161.359,148483.175,20730.394,77298.323,60287.796
1.932,09-22-2026 23:40:01:290,-60909.934,-73165.038,92985.582,48112.756,147920.85,17125.504,77426.845,59538.565
1.936,09-22-2026 23:40:01:294,-61251.022,-73618.465,77388.802,39331.471,146956.864,9915.726,77725.017,58321.066
1.94,09-22-2026 23:40:01:298,-61114.587,-73479.661,69480.576,31386.498,146715.867,8914.367,77786.708,58246.143
1.944,09-22-2026 23:40:01:302,-60598.083,-72933.697,80683.897,35568.063,147385.302,15323.06,77488.536,59332.527
1.948,09-22-2026 23:40:01:306,-60344.703,-72693.103,95841.33,46161.359,147974.404,20830.529,77241.773,60100.488
1.952,09-22-2026 23:40:01:310,-60646.809,-73137.277,93205.254,48112.756,147412.079,17125.504,77385.718,59332.527
1.956,09-22-2026 23:40:01:314,-61036.624,-73664.734,76949.457,39052.7,146394.538,9615.318,77719.876,58133.758
1.96,09-22-2026 23:40:01:318,-60890.443,-73516.676,69041.231,30968.342,146260.652,8714.096,77802.131,58152.489
1.964,09-22-2026 23:40:01:322,-60412.921,-72924.444,80683.897,35428.677,147063.973,15423.195,77529.663,59351.258
1.968,09-22-2026 23:40:01:326,-60188.777,-72693.103,96280.676,46300.745,147679.853,21130.937,77257.195,60137.95
1.972,09-22-2026 23:40:01:330,-60568.847,-73248.321,93205.254,48112.756,147144.305,17325.776,77431.986,59313.796
1.976,09-22-2026 23:40:01:334,-60958.661,-73812.792,76729.784,38773.929,146153.542,9615.318,77802.131,58077.566
1.98,09-22-2026 23:40:01:338,-60812.481,-73655.48,68601.885,30689.571,146019.655,8714.096,77879.244,58096.297
1.984,09-22-2026 23:40:01:342,-60325.213,-73026.234,80683.897,35149.906,146876.531,15623.467,77570.79,59295.065
1.988,09-22-2026 23:40:01:346,-60159.541,-72767.132,96500.349,46300.745,147519.189,21331.209,77293.182,60119.219
1.992,09-22-2026 23:40:01:350,-60549.356,-73303.842,93644.6,48252.141,146956.864,17425.912,77462.831,59351.258
1.996,09-22-2026 23:40:01:354,-60978.152,-73868.313,76729.784,38773.929,145912.545,9515.182,77832.976,58077.566
2,09-22-2026 23:40:01:358,-60841.717,-73711.002,68601.885,30550.186,145778.658,8613.96,77894.667,58077.566
2.004,09-22-2026 23:40:01:362,-60375.817,-73086.002,80844.025,35152.052,146625.477,15583.815,77552.775,59294.082
2.008,09-22-2026 23:40:01:366,-60176.26,-72787.025,97002.592,46414.247,147315.877,21429.243,77251.742,60124.896
2.012,09-22-2026 23:40:01:370,-60616.947,-73337.772,93816.396,48267.519,146660.882,17358.32,77430.734,59238.694
2.016,09-22-2026 23:40:01:374,-61057.634,-73904.255,76747.486,38716.038,145581.024,9320.856,77788.72,57946.316
2.02,09-22-2026 23:40:01:378,-60924.597,-73731.163,68554.41,30305.032,145439.404,8485.795,77853.808,58020.167
2.024,09-22-2026 23:40:01:382,-60425.706,-73101.738,80844.025,35152.052,146359.938,15688.198,77512.095,59275.619
2.028,09-22-2026 23:40:01:386,-60251.094,-72881.439,97002.592,46414.247,146979.528,21429.243,77227.333,60051.046
2.032,09-22-2026 23:40:01:390,-60708.411,-73447.922,93816.396,48267.519,146342.235,17253.937,77390.054,59164.844
2.036,09-22-2026 23:40:01:394,-61157.413,-74061.611,76747.486,38573.478,145315.486,9216.474,77764.312,57872.466
2.04,09-22-2026 23:40:01:398,-60982.801,-73872.784,68554.41,30305.032,145226.973,8485.795,77845.672,57946.316
2.044,09-22-2026 23:40:01:402,-60475.595,-73180.416,81071.61,35152.052,146147.507,15688.198,77536.503,59220.232
2.048,09-22-2026 23:40:01:406,-60292.668,-72912.91,97230.178,46414.247,146802.502,21429.243,77251.742,59995.658
2.052,09-22-2026 23:40:01:410,-60783.244,-73542.335,94043.981,48124.96,146147.507,17253.937,77455.142,59090.994
2.056,09-22-2026 23:40:01:414,-61232.246,-74140.289,76747.486,38430.919,145138.46,9425.239,77861.944,57854.004
2.06,09-22-2026 23:40:01:418,-61090.894,-73998.669,68781.995,30305.032,145067.649,8694.56,77967.713,57927.854
2.064,09-22-2026 23:40:01:422,-60600.318,-73432.186,81299.195,35009.493,146005.886,15896.963,77699.223,59201.769
2.068,09-22-2026 23:40:01:426,-60400.761,-73274.83,97230.178,46271.687,146731.692,21638.009,77463.278,60032.583
2.072,09-22-2026 23:40:01:430,-60824.819,-73967.197,94043.981,47982.4,146165.21,17567.085,77674.815,59201.769
2.076,09-22-2026 23:40:01:434,-61223.931,-74643.829,76975.072,38288.359,145280.08,9634.004,78081.617,58020.167
2.08,09-22-2026 23:40:01:438,-61032.69,-74533.68,69009.58,30162.472,145368.593,8798.943,78187.386,58130.942
2.084,09-22-2026 23:40:01:442,-60500.54,-73935.726,81526.781,34866.933,146448.451,16001.346,77886.352,59386.395
2.088,09-22-2026 23:40:01:446,-60284.354,-73683.956,97457.763,46129.128,147280.472,21742.391,77609.727,60198.746
2.092,09-22-2026 23:40:01:450,-60708.411,-74234.703,94271.567,47839.841,146873.313,17567.085,77804.992,59349.469
2.096,09-22-2026 23:40:01:454,-61082.579,-74785.45,77202.657,38288.359,146058.994,9738.387,78187.386,58130.942
2.1,09-22-2026 23:40:01:458,-60907.967,-74596.623,69464.751,30162.472,146094.399,8903.326,78260.61,58204.792
2.104,09-22-2026 23:40:01:462,-60438.983,-73960.179,81671.173,34841.095,146994.593,15914.04,77920.103,59422.068
2.108,09-22-2026 23:40:01:466,-60257.487,-73683.822,97394.016,46003.109,147668.498,21501.618,77593.41,60219.399
2.112,09-22-2026 23:40:01:470,-60646.407,-74161.166,94378.676,47772.696,147102.418,17510.491,77728.236,59405.796
2.116,09-22-2026 23:40:01:474,-61041.809,-74701.318,77578.926,38380.27,146158.951,9727.792,78049.744,58201.663
2.12,09-22-2026 23:40:01:478,-60925.133,-74613.386,70040.577,30485.187,145997.214,8829.788,78086.043,58250.479
2.124,09-22-2026 23:40:01:482,-60458.429,-74060.672,82101.936,35249.461,146751.988,15714.483,77717.865,59438.34
2.128,09-22-2026 23:40:01:486,-60296.379,-73872.247,97394.016,46139.231,147237.199,21102.505,77432.657,60170.583
2.132,09-22-2026 23:40:01:490,-60685.299,-74412.399,94378.676,47772.696,146563.294,17111.378,77572.668,59340.708
2.136,09-22-2026 23:40:01:494,-61080.701,-75002.798,77794.308,38516.392,145538.958,9528.236,77930.475,58152.846
2.14,09-22-2026 23:40:01:498,-60905.687,-74877.182,70471.34,30757.431,145377.221,8829.788,77971.959,58217.935
2.144,09-22-2026 23:40:01:502,-60451.947,-74349.591,82101.936,35385.583,146051.126,15415.149,77686.751,59389.524
2.148,09-22-2026 23:40:01:506,-60257.487,-74136.042,96747.872,45866.987,146536.338,20603.615,77427.471,60138.039
2.152,09-22-2026 23:40:01:510,-60646.407,-74663.633,93517.151,47364.33,145889.389,16712.265,77577.854,59373.252
2.156,09-22-2026 23:40:01:514,-60996.435,-75191.224,77794.308,38380.27,144972.878,9628.014,77883.804,58266.751
2.16,09-22-2026 23:40:01:518,-60879.759,-75090.73,70902.103,31029.675,144811.141,9029.345,77951.217,58348.111
2.164,09-22-2026 23:40:01:522,-60471.393,-74588.263,82317.317,35521.705,145485.046,15315.371,77676.38,59438.34
2.168,09-22-2026 23:40:01:526,-60328.789,-74424.961,96101.728,45322.498,145916.345,20004.945,77468.956,60105.495
2.172,09-22-2026 23:40:01:530,-60639.925,-74839.497,92440.244,46683.719,145431.134,16412.931,77603.782,59422.068
2.176,09-22-2026 23:40:01:534,-61002.917,-75279.155,77794.308,38108.026,144595.491,9827.57,77899.361,58380.655
2.18,09-22-2026 23:40:01:538,-60931.615,-75153.539,71548.247,31301.919,144487.666,9428.458,77946.031,58445.744
2.184,09-22-2026 23:40:01:542,-60620.479,-74713.88,82532.699,35657.827,145080.703,15215.592,77723.05,59438.34
2.188,09-22-2026 23:40:01:546,-60484.357,-74512.893,95455.583,45050.254,145538.958,19705.611,77494.884,60072.951
2.192,09-22-2026 23:40:01:550,-60769.565,-74889.743,92009.481,46275.353,145107.659,16313.152,77624.524,59405.796
2.196,09-22-2026 23:40:01:554,-61067.737,-75279.155,77794.308,38108.026,144352.885,10027.127,77863.062,58413.2
2.2,09-22-2026 23:40:01:558,-60996.435,-75178.662,71979.01,31438.042,144245.061,9528.236,77909.732,58429.472
2.204,09-22-2026 23:40:01:562,-60659.997,-74702.302,82751.969,35763.506,144849.139,15180.947,77684.293,59418.715
2.208,09-22-2026 23:40:01:566,-60507.022,-74503.282,95364.254,45123.746,145289.021,19584.42,77491.173,60030.259
2.212,09-22-2026 23:40:01:570,-60776.047,-74865.782,92025.708,46279.332,144849.139,16203.182,77595.78,59364.356
2.216,09-22-2026 23:40:01:574,-61029.248,-75256.714,77929.625,38190.235,144189.315,10069.774,77857.295,58372.296
2.22,09-22-2026 23:40:01:578,-60971.223,-75185.636,72365.382,31603.4,144112.336,9676.607,77925.691,58426.655
2.224,09-22-2026 23:40:01:582,-60681.097,-74766.272,82937.444,35879.065,144695.18,15259.581,77720.502,59391.535
2.228,09-22-2026 23:40:01:586,-60565.047,-74602.792,95549.729,45008.188,145146.059,19584.42,77551.523,59989.489
2.232,09-22-2026 23:40:01:590,-60812.972,-74951.077,92211.183,46163.773,144838.142,16281.815,77664.176,59350.766
2.236,09-22-2026 23:40:01:594,-61150.573,-75384.656,78300.575,38074.677,144167.321,10148.407,77933.738,58331.526
2.24,09-22-2026 23:40:01:598,-61118.923,-75292.254,72550.857,31603.4,144079.345,9676.607,77990.064,58385.886
2.244,09-22-2026 23:40:01:602,-60791.872,-74837.351,83308.394,35879.065,144684.183,15338.214,77788.899,59364.356
2.248,09-22-2026 23:40:01:606,-60633.622,-74624.115,95920.678,45008.188,145190.048,19584.42,77583.71,59989.489
2.252,09-22-2026 23:40:01:610,-60902.647,-75015.047,92396.658,46163.773,144783.156,16203.182,77724.526,59309.996
2.256,09-22-2026 23:40:01:614,-61176.948,-75398.871,78486.05,38074.677,144134.33,10069.774,77965.924,58331.526
2.26,09-22-2026 23:40:01:618,-61081.998,-75270.93,72921.806,31603.4,144035.357,9676.607,78002.134,58358.706
2.264,09-22-2026 23:40:01:622,-60739.122,-74837.351,83493.869,35879.065,144596.206,15259.581,77780.852,59296.406
2.268,09-22-2026 23:40:01:626,-60543.947,-74617.007,95920.678,45123.746,145058.083,19505.786,77567.616,59921.54
2.272,09-22-2026 23:40:01:630,-60791.872,-74958.184,92396.658,46279.332,144662.189,16203.182,77684.293,59269.227
2.276,09-22-2026 23:40:01:634,-61092.548,-75342.009,78300.575,38190.235,143958.377,9991.14,77913.621,58304.347
2.28,09-22-2026 23:40:01:638,-60992.323,-75256.714,72736.332,31718.958,143892.395,9597.973,77949.831,58345.116
2.284,09-22-2026 23:40:01:642,-60675.822,-74851.567,83493.869,35994.623,144497.233,15180.947,77728.549,59337.176
2.288,09-22-2026 23:40:01:646,-60512.297,-74645.439,95920.678,45239.305,145047.086,19505.786,77515.313,60016.669
2.292,09-22-2026 23:40:01:650,-60781.322,-75015.047,92396.658,46279.332,144717.174,16045.915,77640.036,59391.535
2.296,09-22-2026 23:40:01:654,-61050.348,-75405.979,78115.1,38190.235,144112.336,9912.507,77869.365,58413.065
2.3,09-22-2026 23:40:01:658,-60997.598,-75349.116,72550.857,31718.958,144057.351,9597.973,77905.575,58440.245
2.304,09-22-2026 23:40:01:662,-60671.933,-74923.986,83268.027,36058.996,144695.448,15315.058,77664.757,59317.596
2.308,09-22-2026 23:40:01:666,-60515.158,-74765.021,95882.636,45166.975,145192.596,19570.919,77473.069,59919.484
2.312,09-22-2026 23:40:01:670,-60813.777,-75139.725,92053.201,46270.972,144861.164,16205.819,77586.884,59284.158
2.316,09-22-2026 23:40:01:674,-61119.862,-75559.849,77861.765,37852.992,144228.431,9970.487,77850.455,58247.573
2.32,09-22-2026 23:40:01:678,-61030.276,-75434.947,72230.243,31505.007,144168.171,9673.567,77892.387,58264.292
2.324,09-22-2026 23:40:01:682,-60686.864,-74980.76,83268.027,35920.997,144770.774,15513.005,77658.767,59217.281
2.328,09-22-2026 23:40:01:686,-60515.158,-74776.375,95882.636,45304.974,145237.791,19867.84,77449.107,59835.888
2.332,09-22-2026 23:40:01:690,-60783.915,-75173.789,92053.201,46132.972,144861.164,16205.819,77574.903,59150.405
2.336,09-22-2026 23:40:01:694,-61067.603,-75650.686,77185.983,37438.993,144198.301,9673.567,77844.465,58163.978
2.34,09-22-2026 23:40:01:698,-60903.363,-75571.203,71554.461,30815.009,144183.236,9376.646,77880.407,58281.011
2.344,09-22-2026 23:40:01:702,-60500.227,-75151.08,83042.766,35506.998,144861.164,15513.005,77628.815,59367.753
2.348,09-22-2026 23:40:01:706,-60328.521,-74992.114,96558.418,45442.974,145373.377,20065.787,77365.244,60069.956
2.352,09-22-2026 23:40:01:710,-60664.467,-75469.011,92503.723,46408.972,144876.229,16106.846,77443.117,59334.315
2.356,09-22-2026 23:40:01:714,-61037.741,-75968.617,76510.2,37162.994,144032.585,8980.752,77664.757,58230.854
2.36,09-22-2026 23:40:01:718,-60880.966,-75786.942,70202.895,29987.011,143972.325,8683.832,77676.738,58364.607
2.364,09-22-2026 23:40:01:722,-60440.503,-75219.208,82592.244,35092.999,144725.578,15513.005,77371.234,59534.944
2.368,09-22-2026 23:40:01:726,-60268.797,-75026.178,97459.462,45718.973,145267.921,20560.654,77131.623,60253.866
2.372,09-22-2026 23:40:01:730,-60642.071,-75559.849,92954.244,46822.971,144605.058,16304.793,77323.312,59384.472
2.376,09-22-2026 23:40:01:734,-61015.345,-76116.228,76059.678,37024.994,143640.893,8683.832,77682.728,58163.978
2.38,09-22-2026 23:40:01:738,-60851.104,-75923.199,69301.852,29435.012,143671.023,8485.884,77724.66,58297.73
2.384,09-22-2026 23:40:01:742,-60365.848,-75287.336,82366.983,34816.999,144605.058,15710.952,77401.185,59551.663
2.388,09-22-2026 23:40:01:746,-60171.745,-75048.888,97684.723,45856.973,145192.596,20956.549,77131.623,60287.304
2.392,09-22-2026 23:40:01:750,-60634.605,-75650.686,93179.505,46822.971,144469.472,16403.766,77353.263,59384.472
2.396,09-22-2026 23:40:01:754,-61030.276,-76207.066,75834.417,36886.994,143475.177,8584.858,77736.64,58214.135
2.4,09-22-2026 23:40:01:758,-60836.173,-76025.391,69076.591,29297.013,143460.112,8386.911,77766.592,58414.764
2.404,09-22-2026 23:40:01:762,-60338.936,-75397.664,82299.615,34757.499,144334.378,15754.806,77424.297,59703.208
2.408,09-22-2026 23:40:01:766,-60166.515,-75150.901,98106.769,45970.252,144933.405,21099.019,77148.432,60452.841
2.412,09-22-2026 23:40:01:770,-60620.256,-75740.987,93457.606,47105.72,144238.534,16371.446,77370.206,59538.655
2.416,09-22-2026 23:40:01:774,-61046.772,-76320.344,75558.329,36886.503,143160.286,8355.127,77765.072,58295.361
2.42,09-22-2026 23:40:01:778,-60865.275,-76073.581,68817.043,29080.156,143112.364,8149.58,77792.117,58478.198
2.424,09-22-2026 23:40:01:782,-60329.862,-75365.478,82299.615,34757.499,143974.962,15754.806,77440.524,59758.059
2.428,09-22-2026 23:40:01:786,-60166.515,-75107.986,98106.769,46254.119,144573.989,21099.019,77159.25,60452.841
2.432,09-22-2026 23:40:01:790,-60647.48,-75730.258,93457.606,47105.72,143807.235,16268.672,77381.024,59483.803
2.436,09-22-2026 23:40:01:794,-61073.996,-76298.887,75558.329,37028.436,142776.909,8252.353,77775.89,58258.794
2.44,09-22-2026 23:40:01:798,-60892.5,-76062.852,68584.584,29222.09,142728.986,8046.807,77797.526,58405.064
2.444,09-22-2026 23:40:01:802,-60366.161,-75376.207,82299.615,34899.433,143687.429,15754.806,77435.115,59666.641
2.448,09-22-2026 23:40:01:806,-60220.964,-75150.901,98106.769,46254.119,144286.456,21099.019,77153.841,60361.422
2.452,09-22-2026 23:40:01:810,-60738.228,-75773.174,93457.606,47105.72,143567.624,16268.672,77391.842,59392.385
2.456,09-22-2026 23:40:01:814,-61164.744,-76341.802,75325.871,36744.569,142489.376,8149.58,77786.708,58130.808
2.46,09-22-2026 23:40:01:818,-60956.023,-76084.31,68584.584,29080.156,142465.415,8149.58,77808.345,58331.929
2.464,09-22-2026 23:40:01:822,-60456.909,-75376.207,82299.615,34757.499,143375.935,15754.806,77445.934,59630.073
2.468,09-22-2026 23:40:01:826,-60239.114,-75075.799,98106.769,46254.119,143927.04,21099.019,77164.659,60343.139
2.472,09-22-2026 23:40:01:830,-60765.452,-75655.156,93225.148,47105.72,143088.403,16165.899,77413.479,59374.101
2.476,09-22-2026 23:40:01:834,-61319.016,-76213.056,75325.871,36744.569,142058.077,8046.807,77813.754,58149.091
2.48,09-22-2026 23:40:01:838,-61110.295,-75944.835,68584.584,29080.156,142058.077,8046.807,77835.39,58368.496
2.484,09-22-2026 23:40:01:842,-60556.732,-75236.732,82299.615,34757.499,143016.519,15652.033,77445.934,59666.641
2.488,09-22-2026 23:40:01:846,-60384.311,-74979.24,98106.769,46112.185,143615.546,20996.245,77148.432,60379.706
2.492,09-22-2026 23:40:01:850,-60729.153,-75537.139,93225.148,47105.72,142944.636,16165.899,77348.569,59410.669
2.496,09-22-2026 23:40:01:854,-61137.52,-76116.496,75093.412,36744.569,141890.349,8046.807,77721.799,58130.808
2.5,09-22-2026 23:40:01:858,-60919.724,-75837.547,68584.584,29080.156,141914.31,8046.807,77721.799,58295.361
2.504,09-22-2026 23:40:01:862,-60400.493,-75145.045,82197.244,34804.929,142904.269,15679.346,77340.657,59515.364
2.508,09-22-2026 23:40:01:866,-60253.821,-74905.255,98082.629,46245.536,143582.421,20939.874,77058.22,60197.718
2.512,09-22-2026 23:40:01:870,-60762.86,-75518.051,93017.723,47082.653,142887.729,16084.002,77298.814,59212.096
2.516,09-22-2026 23:40:01:874,-61168.365,-76037.595,75290.555,36758.204,141928.392,8092.047,77685.857,57980.067
2.52,09-22-2026 23:40:01:878,-60952.671,-75744.519,68844.312,29363.666,142027.633,8092.047,77706.778,58207.519
2.524,09-22-2026 23:40:01:882,-60495.399,-75065.115,82657.69,35083.969,143036.591,15780.51,77319.736,59477.456
2.528,09-22-2026 23:40:01:886,-60383.238,-74812.004,98082.629,46385.055,143714.743,20939.874,77058.22,60178.764
2.532,09-22-2026 23:40:01:890,-60900.904,-75371.513,93017.723,47082.653,143003.511,16084.002,77288.354,59155.233
2.536,09-22-2026 23:40:01:894,-61349.548,-75904.378,75290.555,36758.204,142011.093,8092.047,77691.087,57904.25
2.54,09-22-2026 23:40:01:898,-61107.971,-75558.016,69074.535,29503.185,142126.875,8294.375,77701.548,58169.61
2.544,09-22-2026 23:40:01:902,-60590.304,-74838.647,82887.913,35363.008,143053.131,15881.674,77335.426,59477.456
2.548,09-22-2026 23:40:01:906,-60435.004,-74625.501,98082.629,46524.575,143615.501,20939.874,77079.141,60140.855
2.552,09-22-2026 23:40:01:910,-60918.16,-75238.296,93017.723,47082.653,142821.567,15982.838,77309.275,59117.324
2.556,09-22-2026 23:40:01:914,-61289.154,-75744.519,75520.778,36897.723,141829.15,8092.047,77675.397,57885.296
2.56,09-22-2026 23:40:01:918,-61056.204,-75478.086,69304.758,29642.705,141845.69,8294.375,77675.397,58074.839
2.564,09-22-2026 23:40:01:922,-60564.421,-74785.361,82887.913,35363.008,142738.866,15679.346,77324.966,59287.913
2.568,09-22-2026 23:40:01:926,-60435.004,-74492.285,98082.629,46385.055,143334.316,20737.546,77073.911,59951.313
2.572,09-22-2026 23:40:01:930,-60900.904,-75051.793,92787.5,46943.134,142623.084,15780.51,77314.505,58984.644
2.576,09-22-2026 23:40:01:934,-61289.154,-75558.016,75520.778,36897.723,141680.287,8092.047,77696.318,57790.525
2.58,09-22-2026 23:40:01:938,-61082.087,-75278.261,69534.981,29782.224,141746.448,8294.375,77722.469,58036.93
2.584,09-22-2026 23:40:01:942,-60590.304,-74572.214,83118.136,35642.047,142722.326,15780.51,77361.578,59287.913
2.588,09-22-2026 23:40:01:946,-60512.654,-74345.747,98082.629,46385.055,143251.615,20535.218,77115.754,59932.358
2.592,09-22-2026 23:40:01:950,-60944.043,-74891.934,92787.5,46803.614,142556.923,15679.346,77330.196,58984.644
2.596,09-22-2026 23:40:01:954,-61297.782,-75411.478,75520.778,36897.723,141614.126,8092.047,77680.627,57809.479
2.6,09-22-2026 23:40:01:958,-61056.204,-75131.723,69995.427,29921.744,141680.287,8395.539,77670.166,58093.793
2.604,09-22-2026 23:40:01:962,-60621.239,-74457.103,83348.537,35818.045,142600.911,15669.869,77332.655,59368.334
2.608,09-22-2026 23:40:01:966,-60621.239,-74147.308,97761.121,46477.86,143178.257,20335.572,77081.6,60004.689
2.612,09-22-2026 23:40:01:970,-61157.681,-74572.17,92598.405,46867.853,142567.92,15669.869,77314.058,59107.266
2.616,09-22-2026 23:40:01:974,-61597.563,-74988.18,75819.576,37118.022,141611.176,8242.832,77653.447,57932.458
2.62,09-22-2026 23:40:01:978,-61458.088,-74704.939,70441.746,30358.139,141611.176,8528.487,77658.096,58160.893
2.624,09-22-2026 23:40:01:982,-61050.393,-74058.795,83563.651,36078.04,142468.946,15574.651,77318.707,59384.651
2.628,09-22-2026 23:40:01:986,-60986.019,-73864.066,97546.008,46477.86,142930.823,20145.136,77086.249,59988.372
2.632,09-22-2026 23:40:01:990,-61447.359,-74403.995,92383.291,46737.855,142238.008,15479.432,77290.812,59058.316
2.636,09-22-2026 23:40:01:994,-61865.784,-74899.667,76034.689,37118.022,141314.255,8338.05,77611.605,57932.458
2.64,09-22-2026 23:40:01:998,-61747.767,-74660.683,70656.859,30618.135,141314.255,8623.705,77602.306,58144.576
2.644,09-22-2026 23:40:02:002,-61340.071,-74094.2,83563.651,36078.04,142155.53,15479.432,77290.812,59319.384
2.648,09-22-2026 23:40:02:006,-61232.783,-73908.323,97115.782,46217.864,142699.884,19859.48,77072.302,59906.788
2.652,09-22-2026 23:40:02:010,-61640.479,-74439.4,91737.952,46347.862,142073.052,15288.996,77262.917,59041.999
2.656,09-22-2026 23:40:02:014,-61983.801,-74899.667,76034.689,37118.022,141215.282,8433.268,77560.464,57965.092
2.66,09-22-2026 23:40:02:018,-61887.242,-74687.237,71302.199,30878.13,141231.777,8814.142,77569.762,58160.893
2.664,09-22-2026 23:40:02:022,-61543.919,-74129.605,83778.764,36208.038,141990.574,15384.214,77304.76,59254.117
2.668,09-22-2026 23:40:02:026,-61436.631,-73934.877,96470.442,45827.871,142435.955,19478.607,77114.144,59792.57
2.672,09-22-2026 23:40:02:030,-61683.394,-74377.441,91307.725,46087.867,141908.096,15193.777,77304.76,58960.415
2.676,09-22-2026 23:40:02:034,-61897.971,-74802.303,76034.689,36988.024,141116.308,8623.705,77588.359,57932.458
2.68,09-22-2026 23:40:02:038,-61779.953,-74625.277,71732.425,31008.128,141149.299,9004.579,77593.008,58128.26
2.684,09-22-2026 23:40:02:042,-61436.631,-74147.308,83778.764,36338.036,141875.105,15384.214,77337.304,59188.85
2.688,09-22-2026 23:40:02:046,-61297.156,-73970.282,96255.329,45697.873,142336.982,19383.388,77165.285,59743.62
2.692,09-22-2026 23:40:02:050,-61608.292,-74395.144,90877.499,45827.871,141842.114,15193.777,77346.602,58960.415
2.696,09-22-2026 23:40:02:054,-61887.242,-74784.601,76034.689,36858.027,141083.317,8718.924,77620.903,57932.458
2.7,09-22-2026 23:40:02:058,-61769.225,-74563.318,71732.425,31008.128,141099.813,9099.797,77634.85,58144.576
2.704,09-22-2026 23:40:02:062,-61440.788,-74017.757,83777.02,36299.591,141822.757,15344.338,77378.387,59221.349
2.708,09-22-2026 23:40:02:066,-61313.651,-73796.072,96058.857,45666.402,142307.164,19333.32,77205.786,59779.159
2.712,09-22-2026 23:40:02:070,-61666.809,-74224.153,90736.728,45666.402,141799.69,15163.021,77391.663,59008.069
2.716,09-22-2026 23:40:02:074,-61942.272,-74591.079,75998.524,36915.828,141142.281,8816.914,77666.053,58056.51
2.72,09-22-2026 23:40:02:078,-61815.135,-74430.549,71904.578,31123.195,141176.881,9270.207,77674.905,58269.791
2.724,09-22-2026 23:40:02:082,-61490.23,-73979.536,83981.718,36299.591,141834.291,15434.997,77422.643,59352.599
2.728,09-22-2026 23:40:02:086,-61377.22,-73796.072,96058.857,45666.402,142318.698,19423.979,77263.32,59943.221
2.732,09-22-2026 23:40:02:090,-61659.746,-74185.932,90941.425,45789.65,141880.425,15163.021,77435.92,59155.725
2.736,09-22-2026 23:40:02:094,-61942.272,-74629.301,75998.524,36915.828,141142.281,8726.255,77688.182,58122.135
2.74,09-22-2026 23:40:02:098,-61744.504,-74445.838,71904.578,31123.195,141223.015,9179.549,77683.756,58302.603
2.744,09-22-2026 23:40:02:102,-61327.778,-73948.958,84186.415,36546.086,141972.693,15616.314,77409.366,59319.786
2.748,09-22-2026 23:40:02:106,-61193.578,-73796.072,96672.949,46036.145,142410.966,19605.296,77201.361,59811.972
2.752,09-22-2026 23:40:02:110,-61539.672,-74231.797,91350.82,46036.145,141868.891,15253.68,77378.387,58991.663
2.756,09-22-2026 23:40:02:114,-61850.451,-74682.811,76203.221,36915.828,141096.147,8635.596,77679.33,57941.667
2.76,09-22-2026 23:40:02:118,-61666.809,-74522.281,71904.578,30999.947,141142.281,9088.89,77692.607,58171.354
2.764,09-22-2026 23:40:02:122,-61250.083,-73994.824,84391.112,36546.086,141926.559,15616.314,77431.494,59286.974
2.768,09-22-2026 23:40:02:126,-61130.009,-73819.005,97082.343,46159.392,142410.966,19695.955,77241.192,59877.596
2.772,09-22-2026 23:40:02:130,-61525.546,-74285.307,91555.517,46159.392,141880.425,15253.68,77427.069,59024.475
2.776,09-22-2026 23:40:02:134,-61878.703,-74743.965,75793.827,36669.333,141061.546,8363.62,77745.715,57941.667
2.78,09-22-2026 23:40:02:138,-61709.188,-74514.636,71290.487,30630.205,141165.348,8907.572,77763.418,58187.76
2.784,09-22-2026 23:40:02:142,-61320.715,-73933.67,84186.415,36299.591,142030.36,15706.973,77458.048,59336.193
2.788,09-22-2026 23:40:02:146,-61228.894,-73780.784,97082.343,46159.392,142526.301,19877.272,77245.617,59877.596
2.792,09-22-2026 23:40:02:150,-61645.619,-74292.952,91555.517,46159.392,141961.159,15344.338,77440.346,58975.257
2.796,09-22-2026 23:40:02:154,-62027.03,-74751.61,75589.129,36546.086,141130.747,8363.62,77758.992,57859.636
2.8,09-22-2026 23:40:02:158,-61857.514,-74461.126,71085.789,30506.957,141257.616,8907.572,77754.566,58122.135
2.804,09-22-2026 23:40:02:162,-61671.056,-73315.51,83744.879,35822.649,142420.577,16515.659,77557.648,58999.307
2.808,09-22-2026 23:40:02:166,-61629.929,-73077.687,98085.579,46472.719,143005.254,20982.298,77332.744,59560.068
2.812,09-22-2026 23:40:02:170,-62164.582,-73624.679,91711.934,46196.094,142299.609,15644.12,77563.414,58538.682
2.816,09-22-2026 23:40:02:174,-62575.854,-74100.324,73956.782,35546.024,141392.352,7909.209,77949.787,57317.025
2.82,09-22-2026 23:40:02:178,-62279.738,-73648.462,69404.178,29183.645,141654.449,8780.749,77932.486,57637.46
2.824,09-22-2026 23:40:02:182,-61753.31,-72792.3,83744.879,35684.337,142743.157,16515.659,77557.648,58959.253
2.828,09-22-2026 23:40:02:186,-61597.027,-72411.784,98085.579,46611.031,143347.996,21091.24,77303.911,59560.068
2.832,09-22-2026 23:40:02:190,-62016.524,-72792.3,91711.934,46334.406,142622.19,15753.062,77546.114,58578.737
2.836,09-22-2026 23:40:02:194,-62353.767,-73077.687,73956.782,35684.337,141694.771,7800.267,77932.486,57437.188
2.84,09-22-2026 23:40:02:198,-62107.004,-72530.696,69176.548,29183.645,141876.223,8562.864,77903.653,57817.704
2.844,09-22-2026 23:40:02:202,-61621.703,-71698.317,83744.879,35822.649,142864.125,16406.717,77528.814,59139.497
2.848,09-22-2026 23:40:02:206,-61555.9,-71436.712,98085.579,46611.031,143368.157,20982.298,77292.377,59700.258
2.852,09-22-2026 23:40:02:210,-62082.328,-72007.486,91711.934,46334.406,142561.706,15426.235,77557.648,58638.818
2.856,09-22-2026 23:40:02:214,-62485.375,-72530.696,73729.151,35546.024,141493.159,7473.44,77932.486,57377.107
2.86,09-22-2026 23:40:02:218,-62205.709,-72173.962,69176.548,29045.332,141614.126,8344.979,77897.886,57717.569
2.864,09-22-2026 23:40:02:222,-61720.408,-71436.712,83744.879,35684.337,142581.867,16188.832,77505.747,59039.361
2.868,09-22-2026 23:40:02:226,-61654.605,-71222.671,98085.579,46611.031,143025.415,20655.471,77257.777,59580.095
2.872,09-22-2026 23:40:02:230,-62172.808,-71841.01,91484.304,46196.094,142138.319,15208.35,77517.28,58478.601
2.876,09-22-2026 23:40:02:234,-62567.629,-72340.437,73729.151,35407.711,141110.094,7364.497,77886.352,57256.944
2.88,09-22-2026 23:40:02:238,-62320.866,-71983.704,69176.548,29045.332,141190.739,8236.037,77840.218,57557.351
2.884,09-22-2026 23:40:02:242,-61835.565,-71270.236,83517.248,35684.337,142097.997,15970.947,77459.613,58839.09
2.888,09-22-2026 23:40:02:246,-61745.085,-71079.978,97630.319,46334.406,142561.706,20328.643,77217.409,59379.823
2.892,09-22-2026 23:40:02:250,-62222.16,-71674.534,91029.044,45919.469,141775.416,14881.523,77459.613,58338.411
2.896,09-22-2026 23:40:02:254,-62600.531,-72292.873,73501.521,35269.399,140807.675,7255.555,77845.985,57156.808
2.9,09-22-2026 23:40:02:258,-62320.866,-72031.268,69404.178,29045.332,140968.965,8236.037,77817.151,57537.324
2.904,09-22-2026 23:40:02:262,-61841.331,-71433.895,83574.961,35635.878,141891.467,15816.407,77448.973,58769.039
2.908,09-22-2026 23:40:02:266,-61703.734,-71037.241,97329.867,46260.377,142405.199,20145.314,77209.452,59298.776
2.912,09-22-2026 23:40:02:270,-62139.459,-70974.612,90998.243,45851.743,141695.039,14910.357,77442.67,58260.492
2.916,09-22-2026 23:40:02:274,-62514.029,-71350.389,73750.028,35363.455,140758.233,7359.938,77808.255,57073.883
2.92,09-22-2026 23:40:02:278,-62246.479,-70974.612,69601.723,29233.936,140924.441,8366.66,77770.436,57455.293
2.924,09-22-2026 23:40:02:282,-61741.955,-70223.057,83793.292,35908.301,141846.137,15917.08,77430.064,58726.66
2.928,09-22-2026 23:40:02:286,-61612.002,-69701.143,97329.867,46260.377,142359.87,20145.314,77228.362,59298.776
2.932,09-22-2026 23:40:02:290,-62040.083,-69805.526,90779.911,45715.531,141664.82,14809.685,77467.883,58281.682
2.936,09-22-2026 23:40:02:294,-62384.076,-70014.291,73531.696,35227.243,140758.233,7359.938,77820.862,57137.451
2.94,09-22-2026 23:40:02:298,-62124.17,-69513.255,69601.723,29233.936,140969.77,8467.333,77808.255,57497.672
2.944,09-22-2026 23:40:02:302,-61627.291,-68803.453,83793.292,35908.301,141967.016,16118.424,77474.186,58811.418
2.948,09-22-2026 23:40:02:306,-61566.137,-68782.576,97329.867,46260.377,142435.419,20145.314,77285.09,59319.965
2.952,09-22-2026 23:40:02:310,-62040.083,-69659.39,90343.248,45443.108,141710.149,14709.012,77568.734,58281.682
2.956,09-22-2026 23:40:02:314,-62376.432,-70410.945,73313.364,34954.82,140864.002,7359.938,77940.622,57201.02
2.96,09-22-2026 23:40:02:318,-62070.66,-70202.18,69601.723,29097.724,141120.868,8568.005,77909.106,57624.809
2.964,09-22-2026 23:40:02:322,-61627.291,-69596.761,83574.961,35635.878,142103.004,16017.752,77600.25,58917.366
2.968,09-22-2026 23:40:02:326,-61543.204,-69283.613,97111.535,45987.954,142631.846,20145.314,77404.851,59447.102
2.972,09-22-2026 23:40:02:330,-62009.506,-69722.02,90343.248,45306.897,141967.016,14809.685,77656.979,58472.387
2.976,09-22-2026 23:40:02:334,-62376.432,-70223.057,73313.364,34818.609,141120.868,7460.61,78009.957,57391.725
2.98,09-22-2026 23:40:02:338,-62154.748,-69972.538,69601.723,28961.513,141317.295,8568.005,77997.351,57857.893
2.984,09-22-2026 23:40:02:342,-61703.734,-69387.996,83793.292,35635.878,142269.211,16118.424,77650.675,59192.828
2.988,09-22-2026 23:40:02:346,-61650.224,-69325.366,96893.203,45851.743,142677.175,20044.642,77436.367,59764.944
2.992,09-22-2026 23:40:02:350,-62124.17,-69889.032,90124.916,45170.685,141951.906,14709.012,77669.585,58811.418
2.996,09-22-2026 23:40:02:354,-62506.385,-70348.316,73313.364,34818.609,141090.648,7460.61,78009.957,57751.946
3,09-22-2026 23:40:02:358,-62246.479,-70181.304,69601.723,29097.724,141271.966,8568.005,77991.048,58175.735
3.004,09-22-2026 23:40:02:362,-61780.177,-69674.768,83628.873,35720.949,142147.439,16052.978,77658.454,59465.207
3.008,09-22-2026 23:40:02:366,-61711.781,-69616.296,96771.878,45885.181,142569.35,19976.156,77444.414,59978.179
3.012,09-22-2026 23:40:02:370,-62156.357,-70239.999,89988.391,45233.628,141855.346,14679.866,77680.984,58993.272
3.016,09-22-2026 23:40:02:374,-62486.939,-70766.249,73241.66,34939.085,141011.523,7520.066,78024.575,57864.732
3.02,09-22-2026 23:40:02:378,-62270.351,-70503.124,69849.917,29335.726,141190.024,8697.019,77973.882,58234.073
3.024,09-22-2026 23:40:02:382,-61848.573,-69908.657,83840.857,35851.259,142066.302,15954.899,77641.556,59465.207
3.028,09-22-2026 23:40:02:386,-61802.976,-69781.967,96559.894,45885.181,142488.213,19779.997,77455.679,59978.179
3.032,09-22-2026 23:40:02:390,-62270.351,-70347.198,89776.407,45103.317,141790.437,14483.707,77686.617,58972.753
3.036,09-22-2026 23:40:02:394,-62657.93,-70814.976,73241.66,34939.085,140962.841,7520.066,78013.31,57885.251
3.04,09-22-2026 23:40:02:398,-62429.942,-70512.869,70061.901,29466.036,141125.115,8697.019,77973.882,58254.592
3.044,09-22-2026 23:40:02:402,-62065.162,-69947.639,83840.857,35981.57,141985.165,15954.899,77658.454,59424.169
3.048,09-22-2026 23:40:02:406,-62065.162,-69830.694,96347.91,45885.181,142374.622,19681.918,77461.312,59855.066
3.052,09-22-2026 23:40:02:410,-62532.537,-70386.18,89352.44,44973.006,141693.073,14385.627,77680.984,58808.602
3.056,09-22-2026 23:40:02:414,-62851.72,-70805.23,73453.644,35069.395,140914.159,7618.145,77979.514,57762.138
3.06,09-22-2026 23:40:02:418,-62612.332,-70483.633,70273.885,29726.658,141092.66,8893.178,77934.453,58110.959
3.064,09-22-2026 23:40:02:422,-62201.954,-69908.657,84052.841,36242.191,141871.574,15954.899,77602.128,59260.018
3.068,09-22-2026 23:40:02:426,-62167.756,-69811.203,96135.926,45885.181,142212.348,19485.759,77404.985,59670.396
3.072,09-22-2026 23:40:02:430,-62600.933,-70327.708,89352.44,44973.006,141563.254,14385.627,77596.495,58685.489
3.076,09-22-2026 23:40:02:434,-62954.314,-70805.23,73453.644,35069.395,140735.658,7520.066,77883.759,57597.987
3.08,09-22-2026 23:40:02:438,-62737.726,-70512.869,70697.852,29856.969,140914.159,8893.178,77827.433,57946.808
3.084,09-22-2026 23:40:02:442,-62384.345,-69967.129,84052.841,36242.191,141644.39,15856.819,77506.373,59034.31
3.088,09-22-2026 23:40:02:446,-62350.146,-69850.185,96135.926,45885.181,142017.62,19387.68,77309.23,59465.207
3.092,09-22-2026 23:40:02:450,-62817.521,-70425.161,89140.456,44973.006,141303.616,14189.469,77506.373,58439.262
3.096,09-22-2026 23:40:02:454,-63159.503,-70853.957,73453.644,35069.395,140508.475,7520.066,77793.637,57372.279
3.1,09-22-2026 23:40:02:458,-62920.116,-70493.379,70697.852,29987.279,140703.203,8893.178,77742.943,57741.619
3.104,09-22-2026 23:40:02:462,-62569.328,-69922.247,84265.093,36461.82,141468.348,15806.304,77414.954,58874.987
3.108,09-22-2026 23:40:02:466,-62537.007,-69798.731,96330.341,46150.72,141829.239,19366.133,77211.508,59288.315
3.112,09-22-2026 23:40:02:470,-62957.175,-70333.966,89345.198,45088.922,141170.221,14125.274,77414.954,58281.95
3.116,09-22-2026 23:40:02:474,-63280.381,-70745.685,73469.871,35134.573,140385.674,7401.154,77702.755,57185.731
3.12,09-22-2026 23:40:02:478,-63075.684,-70443.758,70506.477,29825.587,140573.965,8785.532,77663.058,57563.118
3.124,09-22-2026 23:40:02:482,-62666.29,-69839.903,84476.764,36594.544,141436.966,16004.073,77335.561,58749.191
3.128,09-22-2026 23:40:02:486,-62655.516,-69730.111,96965.354,46283.444,141782.167,19465.017,77127.153,59180.49
3.132,09-22-2026 23:40:02:490,-63140.325,-70333.966,89768.54,45221.647,141044.693,14125.274,77330.599,58156.155
3.136,09-22-2026 23:40:02:494,-63495.852,-70828.029,73469.871,35001.848,140228.765,7203.386,77648.172,57077.906
3.14,09-22-2026 23:40:02:498,-63269.608,-70526.102,70506.477,29692.862,140432.747,8686.648,77603.513,57509.206
3.144,09-22-2026 23:40:02:502,-62860.213,-69949.695,84688.435,36461.82,141280.057,15905.188,77285.94,58731.22
3.148,09-22-2026 23:40:02:506,-62838.666,-69826.179,97177.025,46416.169,141672.33,19465.017,77092.418,59180.49
3.152,09-22-2026 23:40:02:510,-63312.702,-70320.242,89768.54,45221.647,140950.548,14026.39,77325.636,58156.155
3.156,09-22-2026 23:40:02:514,-63711.323,-70526.102,73258.2,34869.124,140087.547,7104.502,77643.21,57095.877
3.16,09-22-2026 23:40:02:518,-63474.305,-69963.419,70506.477,29560.137,140291.529,8587.764,77598.551,57563.118
3.164,09-22-2026 23:40:02:522,-63075.684,-69249.772,84688.435,36329.095,141138.839,15905.188,77285.94,58803.103
3.168,09-22-2026 23:40:02:526,-63054.137,-69085.085,97177.025,46283.444,141499.73,19465.017,77097.38,59306.286
3.172,09-22-2026 23:40:02:530,-63495.852,-69647.768,89980.211,45221.647,140762.256,14026.39,77345.485,58281.95
3.176,09-22-2026 23:40:02:534,-63819.058,-70141.83,73258.2,34869.124,139899.256,6906.734,77677.945,57221.673
3.18,09-22-2026 23:40:02:538,-63538.946,-69839.903,70294.806,29560.137,140118.929,8488.88,77618.4,57670.943
3.184,09-22-2026 23:40:02:542,-63118.778,-69263.496,84688.435,36461.82,140981.929,15806.304,77280.978,58910.928
3.188,09-22-2026 23:40:02:546,-63086.458,-69167.429,97177.025,46416.169,141389.893,19465.017,77072.57,59360.198
3.192,09-22-2026 23:40:02:550,-63549.72,-69785.007,89980.211,45354.372,140683.802,13927.506,77305.788,58335.863
3.196,09-22-2026 23:40:02:554,-63905.247,-70292.794,73258.2,35001.848,139836.492,6906.734,77623.362,57221.673
3.2,09-22-2026 23:40:02:558,-63646.682,-69977.143,70294.806,29560.137,140040.474,8389.996,77553.892,57652.972
3.204,09-22-2026 23:40:02:562,-63144.706,-69376.462,84600.772,36475.409,140977.459,15721.77,77187.637,58903.686
3.208,09-22-2026 23:40:02:566,-63079.26,-69251.248,97121.414,46611.3,141352.968,19304.755,76970.199,59332.437
3.212,09-22-2026 23:40:02:570,-63521.02,-69877.32,89781.727,45515.528,140633.242,13879.092,77199.081,58307.163
3.216,09-22-2026 23:40:02:574,-63856.431,-70378.178,73159.495,35105.695,139788.346,6815.494,77525.238,57188.682
3.22,09-22-2026 23:40:02:578,-63578.285,-70127.749,70353.144,29763.806,140007.393,8351.059,77485.183,57617.433
3.224,09-22-2026 23:40:02:582,-63111.983,-69000.819,84600.772,36749.352,140914.874,15824.141,77124.694,58885.045
3.228,09-22-2026 23:40:02:586,-62948.369,-66120.886,97337.287,47022.214,141525.077,19611.868,76855.758,59351.079
3.232,09-22-2026 23:40:02:590,-63414.671,-64117.454,89997.6,45926.442,140805.351,14083.834,77073.196,58232.597
3.236,09-22-2026 23:40:02:594,-63766.442,-62865.309,73375.368,35516.609,139976.101,7122.607,77410.797,57132.758
3.24,09-22-2026 23:40:02:598,-63537.382,-61237.521,70569.017,30174.721,140116.917,8658.172,77382.186,57598.791
3.244,09-22-2026 23:40:02:602,-63128.345,-59734.948,84816.645,37023.295,140914.874,16028.883,77056.03,58885.045
3.248,09-22-2026 23:40:02:606,-63095.622,-58733.232,97337.287,46885.243,141259.091,19509.497,76884.368,59351.079
3.252,09-22-2026 23:40:02:610,-63561.924,-58608.017,89565.854,45515.528,140523.719,13981.463,77141.86,58307.163
3.256,09-22-2026 23:40:02:614,-63905.515,-58482.803,72943.622,34968.723,139663.176,6917.865,77508.071,57225.964
3.26,09-22-2026 23:40:02:618,-63619.189,-57606.302,70137.271,29763.806,139913.516,8555.801,77462.295,57729.281
3.264,09-22-2026 23:40:02:622,-63185.61,-56479.371,84816.645,36886.324,140789.704,16131.254,77141.86,59015.534
3.268,09-22-2026 23:40:02:626,-63152.887,-55978.513,97337.287,46885.243,141165.214,19714.239,76958.755,59444.286
3.272,09-22-2026 23:40:02:630,-63643.731,-56228.942,89565.854,45515.528,140414.195,13981.463,77227.691,58344.446
3.276,09-22-2026 23:40:02:634,-63987.322,-56479.371,72511.875,34831.752,139538.007,6815.494,77576.736,57207.323
3.28,09-22-2026 23:40:02:638,-63676.454,-55728.085,70137.271,29626.835,139850.931,8555.801,77513.793,57747.922
3.284,09-22-2026 23:40:02:642,-63218.333,-54851.583,84816.645,36886.324,140774.058,16233.625,77164.749,59052.817
3.288,09-22-2026 23:40:02:646,-63152.887,-54475.94,97553.16,47022.214,141227.799,19816.61,76975.921,59500.21
3.292,09-22-2026 23:40:02:650,-63635.551,-54851.583,89781.727,45652.499,140461.134,14083.834,77233.413,58381.728
3.296,09-22-2026 23:40:02:654,-63979.142,-55102.012,72727.748,34831.752,139584.945,6815.494,77582.458,57244.606
3.3,09-22-2026 23:40:02:658,-63660.093,-54601.154,70137.271,29626.835,139897.87,8555.801,77525.238,57747.922
3.304,09-22-2026 23:40:02:662,-63183.33,-53756.035,85017.498,36931.43,140880.497,16398.491,77175.746,59066.139
3.308,09-22-2026 23:40:02:666,-63159.727,-53541.369,97838.413,47077.199,141256.007,19932.302,76990.047,59480.182
3.312,09-22-2026 23:40:02:670,-63647.531,-54062.701,89798.178,45548.385,140473.695,14007.972,77271.59,58388.613
3.316,09-22-2026 23:40:02:674,-64009.451,-54369.367,72631.189,34707.699,139628.8,6732.48,77625.016,57297.043
3.32,09-22-2026 23:40:02:678,-63718.341,-53817.368,70240.849,29565.323,139926.078,8603.321,77583.084,57824.008
3.324,09-22-2026 23:40:02:682,-63246.273,-52958.703,85017.498,36792.447,140896.143,16398.491,77241.639,59160.24
3.328,09-22-2026 23:40:02:686,-63230.537,-52652.037,97838.413,47077.199,141287.299,19828.367,77067.921,59611.924
3.332,09-22-2026 23:40:02:690,-63765.548,-53112.036,89798.178,45548.385,140551.927,14007.972,77343.473,58520.354
3.336,09-22-2026 23:40:02:694,-64127.468,-53357.369,72848.493,34846.683,139738.323,6836.415,77702.889,57409.964
3.34,09-22-2026 23:40:02:698,-63844.226,-52774.704,70240.849,29704.306,140035.601,8811.192,77642.986,57918.108
3.344,09-22-2026 23:40:02:702,-63356.422,-51977.372,85234.801,37070.413,140958.728,16502.427,77295.551,59254.34
3.348,09-22-2026 23:40:02:706,-63285.612,-51762.706,97838.413,47216.183,141334.238,19932.302,77103.862,59687.204
3.352,09-22-2026 23:40:02:710,-63757.681,-52284.038,89798.178,45687.368,140536.28,14007.972,77361.444,58539.174
3.356,09-22-2026 23:40:02:714,-64111.732,-52652.037,72631.189,34846.683,139644.446,6836.415,77732.841,57409.964
3.36,09-22-2026 23:40:02:718,-63789.152,-52100.039,70240.849,29704.306,139926.078,8707.256,77672.938,57918.108
3.364,09-22-2026 23:40:02:722,-63324.951,-51333.374,85234.801,37070.413,140786.62,16398.491,77313.522,59216.7
3.368,09-22-2026 23:40:02:726,-63301.347,-51149.374,97838.413,47077.199,141146.483,19828.367,77121.833,59611.924
3.372,09-22-2026 23:40:02:730,-63797.02,-51670.706,89580.874,45548.385,140332.879,13800.101,77397.386,58482.714
3.376,09-22-2026 23:40:02:734,-64158.939,-52008.039,72631.189,34707.699,139487.984,6732.48,77750.811,57391.144
3.38,09-22-2026 23:40:02:738,-63852.094,-51486.707,70240.849,29565.323,139738.323,8603.321,77678.928,57899.288
3.384,09-22-2026 23:40:02:742,-63372.158,-50658.709,85234.801,36931.43,140645.804,16294.556,77331.493,59197.88
3.388,09-22-2026 23:40:02:746,-63356.422,-50474.709,97403.806,46938.216,140974.375,19620.495,77139.804,59593.103
3.392,09-22-2026 23:40:02:750,-63852.094,-50965.375,89363.571,45270.419,140160.771,13696.166,77409.366,58463.893
3.396,09-22-2026 23:40:02:754,-64158.939,-51241.374,72413.885,34568.716,139347.168,6732.48,77750.811,57391.144
3.4,09-22-2026 23:40:02:758,-63836.359,-50720.042,70240.849,29565.323,139628.8,8603.321,77666.948,57880.468
3.404,09-22-2026 23:40:02:762,-63374.303,-49994.639,84987.949,36736.21,140522.243,16182.797,77324.251,59155.814
3.408,09-22-2026 23:40:02:766,-63344.441,-49830.04,97104.159,46702.495,140851.753,19388.574,77145.615,59561.99
3.412,09-22-2026 23:40:02:770,-63837.163,-50347.349,89026.685,44927.677,140114.279,13578.104,77423.492,58491.162
3.416,09-22-2026 23:40:02:774,-64165.645,-50653.032,72234.043,34278.769,139314.042,6665.648,77765.876,57438.798
3.42,09-22-2026 23:40:02:778,-63837.163,-50135.723,70320.957,29363.889,139580.788,8569.078,77696.407,57974.211
3.424,09-22-2026 23:40:02:782,-63351.907,-49383.274,84987.949,36736.21,140553.625,16182.797,77344.099,59266.589
3.428,09-22-2026 23:40:02:786,-63329.51,-49242.189,96891.594,46429.446,140898.826,19288.393,77170.426,59617.377
3.432,09-22-2026 23:40:02:790,-63799.836,-49712.47,88814.12,44654.628,140192.734,13477.923,77438.379,58546.55
3.436,09-22-2026 23:40:02:794,-64113.386,-49947.61,72234.043,34142.245,139455.261,6665.648,77755.952,57512.648
3.44,09-22-2026 23:40:02:798,-63807.301,-49383.274,70320.957,29363.889,139769.079,8669.258,77701.369,58011.136
3.444,09-22-2026 23:40:02:802,-63344.441,-48583.796,85200.514,36736.21,140741.916,16282.978,77349.061,59285.052
3.448,09-22-2026 23:40:02:806,-63314.58,-48419.198,97104.159,46565.97,141087.117,19388.574,77165.464,59580.452
3.452,09-22-2026 23:40:02:810,-63769.974,-48960.021,88814.12,44654.628,140412.407,13578.104,77428.454,58472.7
3.456,09-22-2026 23:40:02:814,-64038.731,-49312.732,72446.608,34142.245,139659.243,6665.648,77731.142,57364.947
3.46,09-22-2026 23:40:02:818,-63710.25,-48842.451,70746.088,29500.413,140020.134,8769.439,77646.786,57863.436
3.464,09-22-2026 23:40:02:822,-63247.39,-48113.516,85625.644,37009.259,140945.898,16282.978,77294.478,59118.889
3.468,09-22-2026 23:40:02:826,-63224.994,-48019.46,97316.724,46702.495,141259.717,19388.574,77135.691,59414.29
3.472,09-22-2026 23:40:02:830,-63687.854,-48560.282,89026.685,44927.677,140537.934,13578.104,77393.72,58325
3.476,09-22-2026 23:40:02:834,-63986.473,-48960.021,72446.608,34278.769,139753.388,6665.648,77736.104,57272.635
3.48,09-22-2026 23:40:02:838,-63672.923,-48466.226,70746.088,29636.938,140082.898,8869.619,77666.635,57808.048
3.484,09-22-2026 23:40:02:842,-63217.528,-47760.805,85625.644,37145.783,140977.28,16383.158,77324.251,59100.426
3.488,09-22-2026 23:40:02:846,-63217.528,-47666.749,97316.724,46702.495,141306.79,19388.574,77160.502,59451.215
3.492,09-22-2026 23:40:02:850,-63695.319,-48184.058,89239.25,44927.677,140600.698,13578.104,77428.454,58380.387
3.496,09-22-2026 23:40:02:854,-64068.593,-48560.282,72659.173,34415.294,139847.534,6765.828,77760.914,57309.56
3.5,09-22-2026 23:40:02:858,-63822.232,-48090.002,70958.653,29773.462,140192.734,8969.8,77681.521,57844.974
3.504,09-22-2026 23:40:02:862,-63431.881,-47413.146,85837.449,37192.364,141080.322,16377.436,77332.431,59140.391
3.508,09-22-2026 23:40:02:866,-63431.881,-47311.222,97632.599,46912.691,141496.735,19355.27,77153.215,59455.104
3.512,09-22-2026 23:40:02:870,-63911.461,-47861.612,89355.301,45022.627,140747.191,13502.286,77407.891,58314.271
3.516,09-22-2026 23:40:02:874,-64231.18,-48187.768,72800.705,34492.273,139997.648,6725.148,77700.296,57212.777
3.52,09-22-2026 23:40:02:878,-63938.104,-47739.303,71352.177,29902.119,140247.496,8778.826,77605.972,57684.846
3.524,09-22-2026 23:40:02:882,-63511.811,-47066.605,86044.381,37462.373,141080.322,16172.068,77256.972,58924.026
3.528,09-22-2026 23:40:02:886,-63565.098,-46964.681,97632.599,46912.691,141496.735,18944.534,77106.053,59238.739
3.532,09-22-2026 23:40:02:890,-64151.25,-47535.455,89355.301,45022.627,140747.191,13091.551,77379.594,58117.575
3.536,09-22-2026 23:40:02:894,-64577.542,-47881.996,72800.705,34492.273,139997.648,6314.413,77700.296,57075.09
3.54,09-22-2026 23:40:02:898,-64311.11,-47392.761,71352.177,29902.119,140580.626,8368.091,77643.702,57625.837
3.544,09-22-2026 23:40:02:902,-63938.104,-46720.063,86044.381,37327.369,141829.865,15761.333,77322.999,58884.687
3.548,09-22-2026 23:40:02:906,-63991.39,-46597.755,97632.599,46777.686,143079.104,18739.166,77181.512,59278.078
3.552,09-22-2026 23:40:02:910,-64577.542,-47148.144,89355.301,44752.618,143662.082,12988.867,77483.35,58196.254
3.556,09-22-2026 23:40:02:914,-64923.905,-47453.916,73214.569,34492.273,144911.321,6417.096,77851.215,57212.777
3.56,09-22-2026 23:40:02:918,-64790.689,-46781.218,71766.042,30037.124,147326.517,8676.143,77813.486,57783.193
3.564,09-22-2026 23:40:02:922,-64497.613,-45782.363,86251.314,37327.369,149658.43,16069.384,77539.945,59022.374
3.568,09-22-2026 23:40:02:926,-64657.472,-45598.9,97425.666,46642.682,150574.538,19047.218,77445.621,59356.756
3.572,09-22-2026 23:40:02:930,-65243.624,-46332.752,88941.436,44482.609,149908.277,13399.603,77794.621,58314.271
3.576,09-22-2026 23:40:02:934,-65696.56,-46821.987,72800.705,34087.26,148742.321,6827.832,78171.918,57330.794
3.58,09-22-2026 23:40:02:938,-65536.701,-46434.676,71559.11,29767.114,148325.908,9086.878,78171.918,57920.88
3.584,09-22-2026 23:40:02:942,-65243.624,-45843.517,86044.381,37057.359,148492.473,16582.804,77917.242,59238.739
3.588,09-22-2026 23:40:02:946,-65483.414,-45802.748,97218.734,46372.672,147826.212,19355.27,77794.621,59573.121
3.592,09-22-2026 23:40:02:950,-66282.712,-46373.522,88734.503,44212.6,145494.3,13604.97,78039.864,58510.966
3.596,09-22-2026 23:40:02:954,-66815.578,-46618.139,72593.772,33817.251,143162.387,7135.884,78303.972,57527.489
3.6,09-22-2026 23:40:02:958,-66709.005,-45863.902,71766.042,29767.114,142162.996,9600.298,78181.351,58117.575
3.604,09-22-2026 23:40:02:962,-66520.758,-45043.146,86549.665,37364.204,141758.116,16934.933,77828.595,59319.742
3.608,09-22-2026 23:40:02:966,-66763.677,-45043.146,97640.288,46601.197,140911.343,19600.066,77661.494,59560.068
3.612,09-22-2026 23:40:02:970,-67470.35,-45678.964,89060.749,44395.348,139294.775,13654.77,77924.082,58438.546
3.616,09-22-2026 23:40:02:974,-67889.937,-45987.239,72738.701,33917.565,137986.125,7094.444,78218.499,57437.188
3.62,09-22-2026 23:40:02:978,-67602.851,-45389.956,71692.416,29643.733,137870.656,9452.061,78250.328,57997.949
3.624,09-22-2026 23:40:02:982,-67183.264,-44696.336,86758.922,37226.339,138371.022,16934.933,77971.825,59319.742
3.628,09-22-2026 23:40:02:986,-67249.515,-44850.474,98058.802,46601.197,138371.022,19702.571,77860.424,59700.258
3.632,09-22-2026 23:40:02:990,-67779.519,-45524.826,89060.749,44395.348,137524.249,13757.275,78154.841,58678.872
3.636,09-22-2026 23:40:02:994,-68088.689,-45852.369,72738.701,33779.7,136869.924,7094.444,78504.959,57717.569
3.64,09-22-2026 23:40:02:998,-67757.436,-45293.62,71692.416,29505.867,137370.29,9554.566,78425.387,58358.438
3.644,09-22-2026 23:40:03:002,-67271.598,-44561.466,86758.922,37226.339,138332.532,17139.943,78099.141,59640.176
3.648,09-22-2026 23:40:03:006,-67293.682,-44503.664,98058.802,46601.197,138717.429,19805.076,77963.868,59960.611
3.652,09-22-2026 23:40:03:010,-67845.77,-45062.413,89060.749,44257.482,137909.146,13757.275,78266.243,58879.144
3.656,09-22-2026 23:40:03:014,-68265.357,-45370.688,72320.187,33503.969,137139.352,7094.444,78624.317,57897.813
3.66,09-22-2026 23:40:03:018,-67978.271,-44811.94,71483.159,29368.002,137485.759,9452.061,78512.916,58478.601
3.664,09-22-2026 23:40:03:022,-67602.851,-44079.786,86758.922,37088.473,138371.022,17037.438,78178.713,59760.339
3.668,09-22-2026 23:40:03:026,-67801.603,-43964.183,98058.802,46601.197,138601.96,19702.571,78019.569,59980.638
3.672,09-22-2026 23:40:03:030,-68486.192,-44503.664,89060.749,44257.482,137832.166,13654.77,78298.071,58839.09
3.676,09-22-2026 23:40:03:034,-68883.695,-44831.207,72320.187,33503.969,137062.372,6889.433,78616.36,57777.65
3.68,09-22-2026 23:40:03:038,-68662.86,-44310.992,71483.159,29230.136,137408.78,9349.556,78520.874,58378.465
3.684,09-22-2026 23:40:03:042,-68397.858,-43617.373,86758.922,37088.473,138332.532,16934.933,78170.756,59600.122
3.688,09-22-2026 23:40:03:046,-68618.693,-43540.304,98058.802,46601.197,138640.45,19702.571,78043.44,59860.475
3.692,09-22-2026 23:40:03:050,-69104.531,-44099.053,89060.749,44119.617,137947.635,13552.265,78337.858,58718.927
3.696,09-22-2026 23:40:03:054,-69325.366,-44465.13,72320.187,33366.103,137254.821,6786.928,78672.061,57697.541
3.7,09-22-2026 23:40:03:058,-69016.197,-43964.183,71483.159,29092.271,137639.718,9247.051,78576.574,58338.411
3.704,09-22-2026 23:40:03:062,-71694.204,-43758.323,86935.814,36164.586,144951.733,20115.229,78778.366,59835.709
3.708,09-22-2026 23:40:03:066,-72071.188,-43718.626,97938.505,45737.034,146301.153,23229.587,78796.337,60091.592
3.712,09-22-2026 23:40:03:070,-73453.465,-44327.309,88445.987,42879.587,146900.895,17136.278,79299.519,59004.09
3.716,09-22-2026 23:40:03:074,-74584.418,-44737.508,71618.342,31878.416,147425.669,10501.341,79802.701,58065.853
3.72,09-22-2026 23:40:03:078,-74710.08,-44287.612,71402.603,27877.99,148325.282,13480.292,79766.76,58726.884
3.724,09-22-2026 23:40:03:082,-74584.418,-43745.091,86935.814,35878.841,149674.702,21333.891,79497.198,59963.651
3.728,09-22-2026 23:40:03:086,-75464.049,-43758.323,97938.505,45165.544,150799.218,24042.028,79497.198,60176.886
3.732,09-22-2026 23:40:03:090,-76846.326,-44406.702,88445.987,42450.97,150724.25,17813.312,79928.497,59068.061
3.736,09-22-2026 23:40:03:094,-78605.587,-44830.134,71834.081,31592.671,150199.476,10772.155,80377.767,58065.853
3.74,09-22-2026 23:40:03:098,-79862.202,-44393.47,71402.603,27592.245,150349.411,13480.292,80377.767,58726.884
3.744,09-22-2026 23:40:03:102,-80867.494,-43784.788,87151.553,35593.097,151174.057,21198.484,80072.263,59984.974
3.748,09-22-2026 23:40:03:106,-81998.447,-43824.484,98154.244,45022.672,151623.863,23500.401,79910.526,60176.886
3.752,09-22-2026 23:40:03:110,-83506.386,-44486.096,88877.465,42450.97,150724.25,17000.871,80108.205,59046.737
3.756,09-22-2026 23:40:03:114,-83883.37,-44909.527,72265.559,31735.543,149749.669,9959.714,80287.913,58044.53
3.76,09-22-2026 23:40:03:118,-83380.724,-44539.025,72049.82,27877.99,149524.766,12261.631,79982.409,58641.59
3.764,09-22-2026 23:40:03:122,-83506.386,-44062.664,87583.031,36021.714,148999.992,19573.601,79497.198,59793.062
3.768,09-22-2026 23:40:03:126,-84511.678,-44128.826,98585.722,45308.417,147800.508,21604.704,79173.723,59899.68
3.772,09-22-2026 23:40:03:130,-85391.308,-44803.669,89093.204,42736.714,145926.314,14834.361,79173.723,58684.237
3.776,09-22-2026 23:40:03:134,-86145.277,-45253.565,72481.298,32021.288,144277.024,7793.204,79281.548,57703.353
3.78,09-22-2026 23:40:03:138,-86396.6,-44856.598,72265.559,28163.734,144052.12,10230.528,78940.103,58321.736
3.784,09-22-2026 23:40:03:142,-86270.939,-44287.612,88014.509,36450.331,144576.895,17813.312,78400.979,59494.532
3.788,09-22-2026 23:40:03:146,-86647.923,-44340.541,98801.461,45737.034,144426.959,19979.822,78095.475,59622.474
3.792,09-22-2026 23:40:03:150,-87150.569,-44988.921,89308.943,43022.459,143452.378,13480.292,78239.242,58449.678
3.796,09-22-2026 23:40:03:154,-87653.215,-45399.12,72697.037,32164.16,142252.894,6845.356,78436.92,57468.794
3.8,09-22-2026 23:40:03:158,-87527.554,-44988.921,72481.298,28449.479,142102.959,9553.493,78221.271,58108.501
3.804,09-22-2026 23:40:03:162,-87369.482,-44426.104,88122.602,36577.065,142097.729,17045.396,77809.105,59301.816
3.808,09-22-2026 23:40:03:166,-87812.896,-44510.862,99066.731,45906.326,141485.022,19302.028,77611.515,59493.102
3.812,09-22-2026 23:40:03:170,-88767.941,-45167.735,89385.386,43079.277,140084.552,12870.626,77878.261,58380.164
3.816,09-22-2026 23:40:03:174,-89518.334,-45559.74,72758.728,32195.14,138684.081,6213.561,78164.766,57458.512
3.82,09-22-2026 23:40:03:178,-89620.66,-45082.977,72758.728,28519.977,138158.904,8921.52,77996.815,58171.488
3.824,09-22-2026 23:40:03:182,-89040.812,-44436.698,88543.53,36859.77,137896.316,16706.901,77552.238,59475.712
3.828,09-22-2026 23:40:03:186,-88597.398,-44510.862,99487.659,46189.031,137021.021,18963.533,77295.372,59649.609
3.832,09-22-2026 23:40:03:190,-88972.594,-45178.329,89595.85,43361.982,135270.433,12532.131,77532.479,58467.112
3.836,09-22-2026 23:40:03:194,-89211.355,-45559.74,72969.192,32477.845,133607.374,5762.235,77818.984,57475.902
3.84,09-22-2026 23:40:03:198,-88597.398,-45030.003,72969.192,28802.681,133344.785,8583.025,77651.033,58154.098
3.844,09-22-2026 23:40:03:202,-87812.896,-44341.346,88753.994,37142.475,133782.433,16368.406,77236.095,59388.764
3.848,09-22-2026 23:40:03:206,-87505.917,-44351.941,99487.659,46471.735,133607.374,18625.038,77068.144,59545.271
3.852,09-22-2026 23:40:03:210,-87608.244,-44998.219,89806.314,43503.334,132469.491,12193.637,77334.89,58397.553
3.856,09-22-2026 23:40:03:214,-87471.808,-45400.819,73179.656,32760.55,131506.667,5536.572,77631.274,57441.122
3.86,09-22-2026 23:40:03:218,-86857.851,-44934.651,73179.656,29085.386,131594.197,8357.362,77492.962,58067.15
3.864,09-22-2026 23:40:03:222,-86039.24,-44277.778,88753.994,37283.827,132381.962,16029.911,77127.421,59353.985
3.868,09-22-2026 23:40:03:226,-85834.588,-44309.562,99487.659,46471.735,132469.491,18286.543,76989.109,59545.271
3.872,09-22-2026 23:40:03:230,-86312.111,-44945.245,89595.85,43644.687,131681.726,11742.31,77285.493,58414.943
3.876,09-22-2026 23:40:03:234,-86550.872,-45305.466,72969.192,32760.55,130981.491,5198.077,77591.756,57510.681
3.88,09-22-2026 23:40:03:238,-86039.24,-44849.893,72969.192,29085.386,131331.608,8018.867,77443.564,58188.877
3.884,09-22-2026 23:40:03:242,-85357.065,-44214.209,88543.53,37283.827,132206.903,15578.585,77048.385,59423.543
3.888,09-22-2026 23:40:03:246,-85288.848,-44214.209,99066.731,46471.735,132381.962,17722.385,76910.073,59649.609
3.892,09-22-2026 23:40:03:250,-85732.262,-44818.109,89174.922,43644.687,131594.197,11403.815,77186.698,58554.06
3.896,09-22-2026 23:40:03:254,-86005.132,-45167.735,72758.728,32901.902,130981.491,4972.414,77492.962,57667.188
3.9,09-22-2026 23:40:03:258,-85664.044,-44690.972,72969.192,29368.091,131331.608,7906.036,77374.408,58345.384
3.904,09-22-2026 23:40:03:262,-85114.549,-44152.787,88571.425,37656.297,132228.986,15422.614,77055.002,59549.786
3.908,09-22-2026 23:40:03:266,-84914.724,-44198.787,99015.59,46727.976,132481.114,17512.949,76935.196,59688.411
3.912,09-22-2026 23:40:03:270,-85174.496,-44842.785,88997.717,43657.561,131724.731,11137.427,77222.729,58559.604
3.916,09-22-2026 23:40:03:274,-85274.408,-45195.451,72585.457,32911.111,131094.412,4761.905,77492.291,57628.832
3.92,09-22-2026 23:40:03:278,-84714.9,-44704.785,72798.604,29561.568,131535.635,7792.891,77324.564,58341.763
3.924,09-22-2026 23:40:03:282,-84095.443,-44060.787,88571.425,37795.861,132439.093,15318.098,76965.147,59549.786
3.928,09-22-2026 23:40:03:286,-84055.478,-44076.12,98802.444,46727.976,132649.199,17408.433,76839.352,59668.608
3.932,09-22-2026 23:40:03:290,-84395.18,-44658.785,88997.717,43797.126,131976.859,11032.91,77138.865,58500.193
3.936,09-22-2026 23:40:03:294,-84495.093,-45011.451,72585.457,33050.675,131367.55,4657.388,77474.32,57529.814
3.94,09-22-2026 23:40:03:298,-83895.619,-44474.786,73011.75,29701.132,131829.784,7688.374,77324.564,58183.334
3.944,09-22-2026 23:40:03:302,-83396.057,-43846.121,88997.717,38074.99,132754.252,15318.098,76965.147,59351.749
3.948,09-22-2026 23:40:03:306,-83475.987,-43876.787,99228.737,47146.669,133027.391,17303.916,76845.342,59470.571
3.952,09-22-2026 23:40:03:310,-83895.619,-44459.453,88997.717,43936.69,132313.029,10823.877,77144.856,58282.352
3.956,09-22-2026 23:40:03:314,-83955.566,-44766.118,72585.457,33050.675,131703.72,4448.355,77432.388,57331.777
3.96,09-22-2026 23:40:03:318,-83416.04,-44214.12,73011.75,29701.132,132186.965,7479.341,77282.632,57985.298
3.964,09-22-2026 23:40:03:322,-82936.461,-43508.788,89210.864,38214.554,133153.454,15213.581,76893.264,59213.124
3.968,09-22-2026 23:40:03:326,-83076.338,-43524.121,99441.883,47286.233,133363.561,17094.882,76761.478,59292.338
3.972,09-22-2026 23:40:03:330,-83575.899,-44168.12,89210.864,43936.69,132649.199,10510.327,77066.982,58123.923
3.976,09-22-2026 23:40:03:334,-83795.706,-44490.119,72585.457,33050.675,132060.901,4239.321,77378.476,57193.152
3.98,09-22-2026 23:40:03:338,-83296.145,-43922.787,73224.896,29701.132,132565.157,7479.341,77222.729,57886.28
3.984,09-22-2026 23:40:03:342,-82736.636,-43248.122,89424.01,38354.118,133531.646,15109.064,76839.352,59114.106
3.988,09-22-2026 23:40:03:346,-82796.584,-43278.789,99655.029,47286.233,133762.763,17094.882,76731.527,59213.124
3.992,09-22-2026 23:40:03:350,-83256.18,-43892.121,89424.01,44076.254,133048.401,10510.327,77043.021,58064.512
3.996,09-22-2026 23:40:03:354,-83396.057,-44214.12,72798.604,33050.675,132418.082,4239.321,77360.505,57173.348
4,09-22-2026 23:40:03:358,-82856.531,-43585.455,73651.188,29980.261,133006.38,7479.341,77210.748,57925.887
4.004,09-22-2026 23:40:03:362,-81455.166,-41362.395,90072.21,38522.516,134983.526,14646.606,77022.949,59533.648
4.008,09-22-2026 23:40:03:366,-81556.017,-41378.667,99795.935,47329.551,135204.138,16395.943,76903.68,59645.049
4.012,09-22-2026 23:40:03:370,-82047.666,-41948.189,89658.435,44126.993,134454.058,10078.893,77204.445,58499.209
4.016,09-22-2026 23:40:03:374,-82274.581,-42241.087,73521.191,33318.36,133821.637,4053.399,77520.767,57623.915
4.02,09-22-2026 23:40:03:378,-81782.932,-41671.564,74348.742,30382.682,134336.398,7163.332,77385.941,58340.065
4.024,09-22-2026 23:40:03:382,-81266.07,-41036.953,89658.435,38522.516,135218.845,14452.236,77043.692,59549.562
4.028,09-22-2026 23:40:03:386,-81253.464,-41036.953,98968.384,46929.231,135410.042,16007.202,76924.423,59645.049
4.032,09-22-2026 23:40:03:390,-81656.868,-41606.476,89037.772,43593.233,134674.669,9884.523,77225.188,58562.867
4.036,09-22-2026 23:40:03:394,-81808.145,-41883.101,73521.191,33318.36,134071.664,4150.585,77531.138,57719.401
4.04,09-22-2026 23:40:03:398,-81379.528,-41362.395,74555.629,30382.682,134512.888,7260.517,77391.127,58387.808
4.044,09-22-2026 23:40:03:402,-80938.304,-40744.056,89451.547,38389.076,135307.09,14160.679,77033.32,59501.819
4.048,09-22-2026 23:40:03:406,-80988.73,-40744.056,98140.833,46528.911,135410.042,15715.646,76934.794,59613.22
4.052,09-22-2026 23:40:03:410,-81442.56,-41281.035,88417.108,43326.353,134718.792,9884.523,77209.631,58562.867
4.056,09-22-2026 23:40:03:414,-81593.836,-41557.66,73521.191,33184.92,134101.079,4344.956,77494.839,57703.487
4.06,09-22-2026 23:40:03:418,-81127.4,-41053.226,74762.517,30516.121,134586.425,7454.888,77370.385,58387.808
4.064,09-22-2026 23:40:03:422,-80698.783,-40451.159,89451.547,38522.516,135380.627,14257.865,77054.063,59501.819
4.068,09-22-2026 23:40:03:426,-80736.602,-40451.159,98140.833,46528.911,135527.701,15812.831,76965.907,59597.306
4.072,09-22-2026 23:40:03:430,-81127.4,-40955.593,88210.221,43326.353,134836.451,9884.523,77230.373,58546.952
4.076,09-22-2026 23:40:03:434,-81354.315,-41248.49,73521.191,33184.92,134248.153,4344.956,77520.767,57719.401
4.08,09-22-2026 23:40:03:438,-81039.155,-40760.328,74762.517,30516.121,134689.377,7454.888,77380.756,58403.722
4.084,09-22-2026 23:40:03:442,-80673.57,-40174.534,89658.435,38522.516,135527.701,14355.05,77033.32,59533.648
4.088,09-22-2026 23:40:03:446,-80787.028,-40223.35,98347.72,46662.351,135689.483,15910.016,76877.752,59613.22
4.092,09-22-2026 23:40:03:450,-81266.07,-40809.144,88417.108,43326.353,134954.111,9981.708,77116.29,58531.038
4.096,09-22-2026 23:40:03:454,-81480.379,-41102.042,73521.191,33184.92,134380.521,4344.956,77406.684,57703.487
4.1,09-22-2026 23:40:03:458,-81064.368,-40597.608,74969.405,30649.561,134865.866,7552.073,77277.044,58403.722
4.104,09-22-2026 23:40:03:462,-80632.13,-39987.986,90020.936,38775.851,135722.787,14592.56,76929.966,59565.119
4.108,09-22-2026 23:40:03:466,-80741.788,-40061.076,98895.964,47043.582,135813.223,15932.502,76835.016,59610.985
4.112,09-22-2026 23:40:03:470,-81240.232,-40601.944,88782.559,43576.469,135102.661,9902.762,77125.141,58525.495
4.116,09-22-2026 23:40:03:474,-81449.578,-40865.069,73509.255,33308.48,134508.372,4255.862,77420.542,57699.911
4.12,09-22-2026 23:40:03:478,-80991.01,-40309.583,75160.423,30774.821,134999.306,7510.007,77278.117,58387.897
4.124,09-22-2026 23:40:03:482,-80512.503,-39695.625,90227.332,38909.201,135864.9,14496.85,76945.791,59534.542
4.128,09-22-2026 23:40:03:486,-80552.379,-39754.097,98895.964,47043.582,136007.012,15932.502,76850.841,59626.273
4.132,09-22-2026 23:40:03:490,-81040.854,-40368.055,88782.559,43576.469,135244.773,9807.051,77151.516,58525.495
4.136,09-22-2026 23:40:03:494,-81210.325,-40616.562,73715.651,33308.48,134676.323,4160.151,77436.367,57730.488
4.14,09-22-2026 23:40:03:498,-80801.601,-40075.694,74954.027,30641.47,135128.499,7318.587,77304.492,58387.897
4.144,09-22-2026 23:40:03:502,-80392.877,-39476.355,90020.936,38775.851,135955.335,14305.429,76982.716,59519.253
4.148,09-22-2026 23:40:03:506,-80482.597,-39549.445,98689.568,46910.232,136084.528,15645.372,76887.766,59549.831
4.152,09-22-2026 23:40:03:510,-80931.196,-40148.785,88369.767,43443.119,135335.208,9615.631,77177.891,58464.34
4.156,09-22-2026 23:40:03:514,-81070.761,-40382.673,73509.255,33175.13,134766.759,4064.441,77473.292,57684.622
4.16,09-22-2026 23:40:03:518,-80622.161,-39841.806,74954.027,30508.12,135231.854,7222.877,77315.042,58357.32
4.164,09-22-2026 23:40:03:522,-80213.437,-39242.466,89814.54,38642.5,136019.932,14114.009,76972.166,59519.253
4.168,09-22-2026 23:40:03:526,-80323.095,-39344.792,98070.38,46643.531,136084.528,15358.241,76882.491,59565.119
4.172,09-22-2026 23:40:03:530,-80791.632,-39944.132,87750.579,43043.067,135309.37,9328.501,77177.891,58510.206
4.176,09-22-2026 23:40:03:534,-80951.134,-40163.403,73096.463,33041.779,134779.678,3968.731,77452.192,57761.065
4.18,09-22-2026 23:40:03:538,-80572.317,-39607.917,74954.027,30508.12,135257.692,7127.167,77309.767,58449.052
4.184,09-22-2026 23:40:03:542,-80183.53,-39008.577,89814.54,38509.15,136097.447,13922.589,76998.541,59580.408
4.188,09-22-2026 23:40:03:546,-80333.064,-39110.904,97657.588,46243.479,136149.125,15071.111,76935.241,59565.119
4.192,09-22-2026 23:40:03:550,-80811.57,-39724.861,87337.787,42643.016,135412.724,9041.37,77225.367,58464.34
4.196,09-22-2026 23:40:03:554,-80941.165,-39958.75,72683.671,32508.377,134883.032,3777.311,77504.942,57684.622
4.2,09-22-2026 23:40:03:558,-80492.566,-39417.882,74541.235,30108.068,135412.724,7031.456,77357.242,58357.32
4.204,09-22-2026 23:40:03:562,-80009.857,-38816.308,89428.123,38249.02,136274.339,13904.35,77024.603,59516.884
4.208,09-22-2026 23:40:03:566,-80092.201,-38945.456,97520.169,46007.981,136364.417,15043.707,76992.953,59552.021
4.212,09-22-2026 23:40:03:570,-80572.54,-39576.848,86810.107,42196.562,135589.75,8829.028,77325.279,58480.344
4.216,09-22-2026 23:40:03:574,-80696.056,-39806.445,71816.021,31987.403,135085.316,3442.973,77625.954,57724.9
4.22,09-22-2026 23:40:03:578,-80201.993,-39175.053,74196.035,29673.327,135787.92,7171.781,77451.879,58533.05
4.224,09-22-2026 23:40:03:582,-79721.654,-38529.311,89904.125,38112.898,136724.727,14318.662,77072.078,59692.569
4.228,09-22-2026 23:40:03:586,-79872.618,-38715.859,97996.172,46007.981,136742.742,15250.863,77016.691,59639.863
4.232,09-22-2026 23:40:03:590,-80339.233,-39375.951,86572.106,42196.562,135896.013,8829.028,77372.754,58515.481
4.236,09-22-2026 23:40:03:594,-80462.748,-39562.498,71340.018,31851.281,135355.548,3442.973,77649.692,57760.037
4.24,09-22-2026 23:40:03:598,-79982.409,-38902.407,74196.035,29673.327,136040.138,7275.359,77428.142,58550.618
4.244,09-22-2026 23:40:03:602,-79488.347,-38199.265,91094.132,38385.142,137139.083,14836.552,76969.216,59727.706
4.248,09-22-2026 23:40:03:606,-79749.102,-38486.262,99662.182,46416.348,137139.083,15768.753,76898.003,59604.726
4.252,09-22-2026 23:40:03:610,-80325.509,-39332.901,87048.109,42060.44,136040.138,8725.45,77333.191,58392.502
