PseudoTimeSec,PseudoTimestamp,UF-FP1,UF-FP2,UF-O1,UF-O2,UF-C3,UF-CZ,UF-FZ,UF-C4
0.004,09-22-2026 23:25:52:217,-203311.87,-122282.907,159772.773,153052.855,144277.962,106785.057,125152.871,70529.633
0.008,09-22-2026 23:25:52:221,-183007.098,-100748.611,159145.136,153642.226,144040.542,106117.187,124491.349,69911.25
0.012,09-22-2026 23:25:52:225,-193734.147,-111616.386,159947.116,153344.679,144267.859,107141.254,125422.88,70359.045
0.016,09-22-2026 23:25:52:229,-207142.959,-125905.499,160388.787,152961.302,144439.61,107660.709,125908.896,70799.732
0.02,09-22-2026 23:25:52:233,-204078.088,-123289.183,159796.019,153052.855,144272.911,106829.581,125179.872,70565.173
0.024,09-22-2026 23:25:52:237,-188562.177,-107188.774,158935.923,153453.398,144040.542,105790.672,124234.84,70024.976
0.028,09-22-2026 23:25:52:241,-183007.098,-100949.866,159145.136,153653.67,144060.748,106132.028,124504.849,69939.681
0.032,09-22-2026 23:25:52:245,-193159.484,-111213.876,159923.871,153344.679,144308.271,107141.254,125422.88,70366.153
0.036,09-22-2026 23:25:52:249,-206568.296,-125502.989,160365.541,152955.58,144505.28,107645.867,125922.397,70792.624
0.04,09-22-2026 23:25:52:253,-203503.424,-122886.672,159761.15,153047.133,144384.044,106829.581,125206.873,70579.388
0.044,09-22-2026 23:25:52:257,-188562.177,-107188.774,158959.169,153470.564,144141.572,105805.514,124275.342,70060.515
0.048,09-22-2026 23:25:52:261,-183198.653,-101151.121,159145.136,153642.226,144141.572,106146.87,124545.351,69968.113
0.052,09-22-2026 23:25:52:265,-193159.484,-111213.876,159923.871,153327.513,144368.889,107141.254,125436.381,70359.045
0.056,09-22-2026 23:25:52:269,-206568.296,-125502.989,160377.164,152938.414,144550.743,107675.55,125935.897,70764.192
0.06,09-22-2026 23:25:52:273,-203503.424,-122685.417,159772.773,153035.689,144419.404,106859.265,125233.874,70572.28
0.064,09-22-2026 23:25:52:277,-188562.177,-106987.519,158935.923,153447.676,144156.726,105835.197,124302.342,70067.623
0.068,09-22-2026 23:25:52:281,-183198.653,-100949.866,159133.513,153619.338,144106.212,106161.711,124558.851,69932.573
0.072,09-22-2026 23:25:52:285,-192967.93,-110811.366,159923.871,153321.791,144303.22,107156.096,125449.881,70316.398
0.07600001,09-22-2026 23:25:52:289,-206376.741,-124899.223,160365.541,152944.136,144500.228,107675.55,125949.398,70757.085
0.08000001,09-22-2026 23:25:52:293,-203311.87,-122282.907,159749.527,153018.523,144394.147,106859.265,125233.874,70565.173
0.08400001,09-22-2026 23:25:52:297,-188179.068,-106585.009,158912.678,153407.622,144161.778,105820.356,124288.842,70053.407
0.08800001,09-22-2026 23:25:52:301,-182815.544,-100346.1,159098.644,153590.727,144192.087,106146.87,124545.351,69897.034
0.09200001,09-22-2026 23:25:52:305,-192584.821,-110006.346,159889.002,153298.903,144454.765,107141.254,125449.881,70287.966
0.096,09-22-2026 23:25:52:309,-205993.632,-124295.458,160342.295,152926.97,144682.082,107675.55,125949.398,70742.869
0.1,09-22-2026 23:25:52:313,-203120.315,-121679.142,159772.773,153024.245,144606.309,106874.106,125247.374,70565.173
0.104,09-22-2026 23:25:52:317,-178761.474,-107343.537,158792.381,153152.231,143445.986,106377.003,124773.651,70824.989
0.108,09-22-2026 23:25:52:321,-171363.493,-99148.986,158849.825,153411.869,143382.149,106524.525,124879.867,70603.707
0.112,09-22-2026 23:25:52:325,-180124.26,-107724.679,159631.063,153190.095,143594.938,107527.671,125769.422,70987.263
0.116,09-22-2026 23:25:52:329,-194920.22,-123160.928,160216.991,152811.456,143781.128,108221.022,126406.714,71459.332
0.12,09-22-2026 23:25:52:333,-193752.118,-122589.215,159665.529,152806.047,143648.135,107468.663,125756.145,71311.81
0.124,09-22-2026 23:25:52:337,-179345.525,-107915.25,158792.381,153173.867,143360.87,106377.003,124747.097,70832.365
0.128,09-22-2026 23:25:52:341,-171752.861,-99339.557,158838.336,153422.687,143318.313,106524.525,124840.036,70537.322
0.132,09-22-2026 23:25:52:345,-180708.311,-108105.821,159608.085,153184.685,143563.019,107527.671,125729.591,70817.613
0.136,09-22-2026 23:25:52:349,-195114.904,-123351.499,160171.036,152800.638,143791.767,108191.518,126353.607,71267.554
0.14,09-22-2026 23:25:52:353,-194336.169,-122970.357,159665.529,152816.865,143690.693,107483.415,125729.591,71260.178
0.144,09-22-2026 23:25:52:357,-179929.576,-108105.821,158803.869,153184.685,143414.067,106391.756,124720.544,70817.613
0.148,09-22-2026 23:25:52:361,-172142.228,-99530.128,158838.336,153433.505,143371.51,106524.525,124800.205,70522.57
0.152,09-22-2026 23:25:52:365,-181097.678,-108296.392,159596.596,153190.095,143626.856,107512.919,125689.76,70869.246
0.156,09-22-2026 23:25:52:369,-195504.271,-123351.499,160159.547,152795.229,143903.481,108191.518,126327.053,71378.195
0.16,09-22-2026 23:25:52:373,-194725.537,-123160.928,159654.04,152806.047,143797.087,107483.415,125703.037,71289.682
0.164,09-22-2026 23:25:52:377,-180318.943,-108105.821,158792.381,153190.095,143483.224,106406.508,124720.544,70824.989
0.168,09-22-2026 23:25:52:381,-172726.279,-99720.699,158826.847,153438.914,143414.067,106539.277,124800.205,70574.203
0.172,09-22-2026 23:25:52:385,-181292.362,-108105.821,159562.13,153179.276,143680.053,107527.671,125689.76,70928.254
0.176,09-22-2026 23:25:52:389,-195893.639,-123351.499,160148.059,152768.183,143924.76,108221.022,126340.33,71415.075
0.18,09-22-2026 23:25:52:393,-195114.904,-122970.357,159608.085,152751.956,143813.046,107498.167,125703.037,71304.434
0.184,09-22-2026 23:25:52:397,-180902.994,-108296.392,158757.914,153119.776,143541.741,106421.26,124720.544,70802.861
0.188,09-22-2026 23:25:52:401,-172920.963,-99339.557,158803.869,153390.232,143504.503,106539.277,124786.928,70566.827
0.192,09-22-2026 23:25:52:405,-181487.045,-107915.25,159585.108,153163.049,143759.849,107542.423,125689.76,70898.75
0.196,09-22-2026 23:25:52:409,-196088.323,-123160.928,160171.036,152768.183,143993.916,108250.527,126353.607,71363.443
0.2,09-22-2026 23:25:52:413,-195698.955,-123160.928,159665.529,152784.41,143892.842,107557.175,125742.868,71348.691
0.204,09-22-2026 23:25:52:417,-182942.636,-106019.375,158810.575,153239.581,144332.009,106310.663,124796.629,70767.053
0.208,09-22-2026 23:25:52:421,-175584.71,-97995.189,158890.684,153483.484,144213.321,106488.226,124929.398,70610.278
0.212,09-22-2026 23:25:52:425,-184457.503,-106997.935,159668.882,153234.038,144339.921,107494.412,125818.953,71043.276
0.216,09-22-2026 23:25:52:429,-198524.126,-122067.749,160218.198,152834.925,144442.784,108160.27,126442.969,71513.602
0.22,09-22-2026 23:25:52:433,-197225.669,-121284.902,159634.55,152818.296,144244.971,107390.834,125779.122,71312.034
0.224,09-22-2026 23:25:52:437,-182076.997,-106215.087,158764.798,153178.606,143888.908,106295.867,124770.075,70752.122
0.228,09-22-2026 23:25:52:441,-174719.071,-98190.9,158890.684,153466.854,143778.133,106488.226,124889.567,70640.14
0.232,09-22-2026 23:25:52:445,-183159.045,-106997.935,159645.994,153200.779,143936.383,107464.818,125765.845,71088.069
0.236,09-22-2026 23:25:52:449,-197225.669,-122067.749,160195.31,152785.036,144102.546,108115.88,126389.861,71558.395
0.24,09-22-2026 23:25:52:453,-195494.392,-120893.478,159645.994,152807.209,143936.383,107361.24,125726.014,71304.568
0.244,09-22-2026 23:25:52:457,-180562.13,-105823.664,158787.687,153184.149,143627.795,106295.867,124756.798,70744.657
0.248,09-22-2026 23:25:52:461,-172771.385,-97799.477,158844.907,153422.508,143556.582,106458.632,124863.014,70625.209
0.252,09-22-2026 23:25:52:465,-181427.769,-106606.511,159600.217,153161.976,143754.395,107450.021,125752.568,71073.138
0.256,09-22-2026 23:25:52:469,-195494.392,-121676.325,160160.978,152779.493,143968.033,108115.88,126376.584,71521.067
0.26,09-22-2026 23:25:52:473,-193979.525,-121089.19,159634.55,152807.209,143841.433,107390.834,125739.291,71312.034
0.264,09-22-2026 23:25:52:477,-179047.263,-106019.375,158776.243,153184.149,143509.107,106310.663,124756.798,70759.588
0.268,09-22-2026 23:25:52:481,-171472.928,-98190.9,158844.907,153439.138,143437.894,106488.226,124889.567,70640.14
0.272,09-22-2026 23:25:52:485,-180129.311,-106997.935,159600.217,153189.692,143675.27,107479.615,125779.122,71058.207
0.276,09-22-2026 23:25:52:489,-194412.344,-122459.173,160183.866,152801.666,143912.645,108160.27,126416.415,71506.136
0.28,09-22-2026 23:25:52:493,-193113.886,-121676.325,159657.438,152823.839,143786.045,107420.427,125765.845,71312.034
0.284,09-22-2026 23:25:52:497,-178614.444,-106997.935,158799.131,153200.779,143509.107,106355.054,124783.352,70804.381
0.288,09-22-2026 23:25:52:501,-171040.108,-98778.036,158856.351,153450.224,143461.632,106517.819,124889.567,70617.744
0.292,09-22-2026 23:25:52:505,-179912.902,-107585.07,159623.105,153189.692,143683.182,107509.209,125792.399,71005.949
0.296,09-22-2026 23:25:52:509,-194195.934,-122654.885,160195.31,152779.493,143880.995,108175.067,126416.415,71476.274
0.3,09-22-2026 23:25:52:513,-193330.296,-122263.461,159668.882,152785.036,143738.57,107450.021,125765.845,71334.43
0.304,09-22-2026 23:25:52:517,-178761.474,-107343.537,158792.381,153152.231,143445.986,106377.003,124773.651,70824.989
0.308,09-22-2026 23:25:52:521,-171363.493,-99148.986,158849.825,153411.869,143382.149,106524.525,124879.867,70603.707
0.312,09-22-2026 23:25:52:525,-180124.26,-107724.679,159631.063,153190.095,143594.938,107527.671,125769.422,70987.263
0.316,09-22-2026 23:25:52:529,-194920.22,-123160.928,160216.991,152811.456,143781.128,108221.022,126406.714,71459.332
0.32,09-22-2026 23:25:52:533,-193752.118,-122589.215,159665.529,152806.047,143648.135,107468.663,125756.145,71311.81
0.324,09-22-2026 23:25:52:537,-179345.525,-107915.25,158792.381,153173.867,143360.87,106377.003,124747.097,70832.365
0.328,09-22-2026 23:25:52:541,-171752.861,-99339.557,158838.336,153422.687,143318.313,106524.525,124840.036,70537.322
0.332,09-22-2026 23:25:52:545,-180708.311,-108105.821,159608.085,153184.685,143563.019,107527.671,125729.591,70817.613
0.336,09-22-2026 23:25:52:549,-195114.904,-123351.499,160171.036,152800.638,143791.767,108191.518,126353.607,71267.554
0.34,09-22-2026 23:25:52:553,-194336.169,-122970.357,159665.529,152816.865,143690.693,107483.415,125729.591,71260.178
0.344,09-22-2026 23:25:52:557,-179929.576,-108105.821,158803.869,153184.685,143414.067,106391.756,124720.544,70817.613
0.348,09-22-2026 23:25:52:561,-172142.228,-99530.128,158838.336,153433.505,143371.51,106524.525,124800.205,70522.57
0.352,09-22-2026 23:25:52:565,-181097.678,-108296.392,159596.596,153190.095,143626.856,107512.919,125689.76,70869.246
0.356,09-22-2026 23:25:52:569,-195504.271,-123351.499,160159.547,152795.229,143903.481,108191.518,126327.053,71378.195
0.36,09-22-2026 23:25:52:573,-194725.537,-123160.928,159654.04,152806.047,143797.087,107483.415,125703.037,71289.682
0.364,09-22-2026 23:25:52:577,-180318.943,-108105.821,158792.381,153190.095,143483.224,106406.508,124720.544,70824.989
0.368,09-22-2026 23:25:52:581,-172726.279,-99720.699,158826.847,153438.914,143414.067,106539.277,124800.205,70574.203
0.372,09-22-2026 23:25:52:585,-181292.362,-108105.821,159562.13,153179.276,143680.053,107527.671,125689.76,70928.254
0.376,09-22-2026 23:25:52:589,-195893.639,-123351.499,160148.059,152768.183,143924.76,108221.022,126340.33,71415.075
0.38,09-22-2026 23:25:52:593,-195114.904,-122970.357,159608.085,152751.956,143813.046,107498.167,125703.037,71304.434
0.384,09-22-2026 23:25:52:597,-180902.994,-108296.392,158757.914,153119.776,143541.741,106421.26,124720.544,70802.861
0.388,09-22-2026 23:25:52:601,-172920.963,-99339.557,158803.869,153390.232,143504.503,106539.277,124786.928,70566.827
0.392,09-22-2026 23:25:52:605,-181487.045,-107915.25,159585.108,153163.049,143759.849,107542.423,125689.76,70898.75
0.396,09-22-2026 23:25:52:609,-196088.323,-123160.928,160171.036,152768.183,143993.916,108250.527,126353.607,71363.443
0.4,09-22-2026 23:25:52:613,-195698.955,-123160.928,159665.529,152784.41,143892.842,107557.175,125742.868,71348.691
0.404,09-22-2026 23:25:52:617,-182942.636,-106019.375,158810.575,153239.581,144332.009,106310.663,124796.629,70767.053
0.408,09-22-2026 23:25:52:621,-175584.71,-97995.189,158890.684,153483.484,144213.321,106488.226,124929.398,70610.278
0.412,09-22-2026 23:25:52:625,-184457.503,-106997.935,159668.882,153234.038,144339.921,107494.412,125818.953,71043.276
0.416,09-22-2026 23:25:52:629,-198524.126,-122067.749,160218.198,152834.925,144442.784,108160.27,126442.969,71513.602
0.42,09-22-2026 23:25:52:633,-197225.669,-121284.902,159634.55,152818.296,144244.971,107390.834,125779.122,71312.034
0.424,09-22-2026 23:25:52:637,-182076.997,-106215.087,158764.798,153178.606,143888.908,106295.867,124770.075,70752.122
0.428,09-22-2026 23:25:52:641,-174719.071,-98190.9,158890.684,153466.854,143778.133,106488.226,124889.567,70640.14
0.432,09-22-2026 23:25:52:645,-183159.045,-106997.935,159645.994,153200.779,143936.383,107464.818,125765.845,71088.069
0.436,09-22-2026 23:25:52:649,-197225.669,-122067.749,160195.31,152785.036,144102.546,108115.88,126389.861,71558.395
0.44,09-22-2026 23:25:52:653,-195494.392,-120893.478,159645.994,152807.209,143936.383,107361.24,125726.014,71304.568
0.444,09-22-2026 23:25:52:657,-180562.13,-105823.664,158787.687,153184.149,143627.795,106295.867,124756.798,70744.657
0.448,09-22-2026 23:25:52:661,-172771.385,-97799.477,158844.907,153422.508,143556.582,106458.632,124863.014,70625.209
0.452,09-22-2026 23:25:52:665,-181427.769,-106606.511,159600.217,153161.976,143754.395,107450.021,125752.568,71073.138
0.456,09-22-2026 23:25:52:669,-195494.392,-121676.325,160160.978,152779.493,143968.033,108115.88,126376.584,71521.067
0.46,09-22-2026 23:25:52:673,-193979.525,-121089.19,159634.55,152807.209,143841.433,107390.834,125739.291,71312.034
0.464,09-22-2026 23:25:52:677,-179047.263,-106019.375,158776.243,153184.149,143509.107,106310.663,124756.798,70759.588
0.468,09-22-2026 23:25:52:681,-171472.928,-98190.9,158844.907,153439.138,143437.894,106488.226,124889.567,70640.14
0.472,09-22-2026 23:25:52:685,-180129.311,-106997.935,159600.217,153189.692,143675.27,107479.615,125779.122,71058.207
0.476,09-22-2026 23:25:52:689,-194412.344,-122459.173,160183.866,152801.666,143912.645,108160.27,126416.415,71506.136
0.48,09-22-2026 23:25:52:693,-193113.886,-121676.325,159657.438,152823.839,143786.045,107420.427,125765.845,71312.034
0.484,09-22-2026 23:25:52:697,-178614.444,-106997.935,158799.131,153200.779,143509.107,106355.054,124783.352,70804.381
0.488,09-22-2026 23:25:52:701,-171040.108,-98778.036,158856.351,153450.224,143461.632,106517.819,124889.567,70617.744
0.492,09-22-2026 23:25:52:705,-179912.902,-107585.07,159623.105,153189.692,143683.182,107509.209,125792.399,71005.949
0.496,09-22-2026 23:25:52:709,-194195.934,-122654.885,160195.31,152779.493,143880.995,108175.067,126416.415,71476.274
0.5,09-22-2026 23:25:52:713,-193330.296,-122263.461,159668.882,152785.036,143738.57,107450.021,125765.845,71334.43
0.504,09-22-2026 23:25:52:717,-178761.474,-107343.537,158792.381,153152.231,143445.986,106377.003,124773.651,70824.989
0.508,09-22-2026 23:25:52:721,-171363.493,-99148.986,158849.825,153411.869,143382.149,106524.525,124879.867,70603.707
0.512,09-22-2026 23:25:52:725,-180124.26,-107724.679,159631.063,153190.095,143594.938,107527.671,125769.422,70987.263
0.516,09-22-2026 23:25:52:729,-194920.22,-123160.928,160216.991,152811.456,143781.128,108221.022,126406.714,71459.332
0.52,09-22-2026 23:25:52:733,-193752.118,-122589.215,159665.529,152806.047,143648.135,107468.663,125756.145,71311.81
0.524,09-22-2026 23:25:52:737,-179345.525,-107915.25,158792.381,153173.867,143360.87,106377.003,124747.097,70832.365
0.528,09-22-2026 23:25:52:741,-171752.861,-99339.557,158838.336,153422.687,143318.313,106524.525,124840.036,70537.322
0.532,09-22-2026 23:25:52:745,-180708.311,-108105.821,159608.085,153184.685,143563.019,107527.671,125729.591,70817.613
0.536,09-22-2026 23:25:52:749,-195114.904,-123351.499,160171.036,152800.638,143791.767,108191.518,126353.607,71267.554
0.54,09-22-2026 23:25:52:753,-194336.169,-122970.357,159665.529,152816.865,143690.693,107483.415,125729.591,71260.178
0.544,09-22-2026 23:25:52:757,-179929.576,-108105.821,158803.869,153184.685,143414.067,106391.756,124720.544,70817.613
0.548,09-22-2026 23:25:52:761,-172142.228,-99530.128,158838.336,153433.505,143371.51,106524.525,124800.205,70522.57
0.552,09-22-2026 23:25:52:765,-181097.678,-108296.392,159596.596,153190.095,143626.856,107512.919,125689.76,70869.246
0.5560001,09-22-2026 23:25:52:769,-195504.271,-123351.499,160159.547,152795.229,143903.481,108191.518,126327.053,71378.195
0.56,09-22-2026 23:25:52:773,-194725.537,-123160.928,159654.04,152806.047,143797.087,107483.415,125703.037,71289.682
0.564,09-22-2026 23:25:52:777,-180318.943,-108105.821,158792.381,153190.095,143483.224,106406.508,124720.544,70824.989
0.568,09-22-2026 23:25:52:781,-172726.279,-99720.699,158826.847,153438.914,143414.067,106539.277,124800.205,70574.203
0.572,09-22-2026 23:25:52:785,-181292.362,-108105.821,159562.13,153179.276,143680.053,107527.671,125689.76,70928.254
0.576,09-22-2026 23:25:52:789,-195893.639,-123351.499,160148.059,152768.183,143924.76,108221.022,126340.33,71415.075
0.58,09-22-2026 23:25:52:793,-195114.904,-122970.357,159608.085,152751.956,143813.046,107498.167,125703.037,71304.434
0.5840001,09-22-2026 23:25:52:797,-180902.994,-108296.392,158757.914,153119.776,143541.741,106421.26,124720.544,70802.861
0.588,09-22-2026 23:25:52:801,-172920.963,-99339.557,158803.869,153390.232,143504.503,106539.277,124786.928,70566.827
0.592,09-22-2026 23:25:52:805,-181487.045,-107915.25,159585.108,153163.049,143759.849,107542.423,125689.76,70898.75
0.596,09-22-2026 23:25:52:809,-196088.323,-123160.928,160171.036,152768.183,143993.916,108250.527,126353.607,71363.443
0.6,09-22-2026 23:25:52:813,-195698.955,-123160.928,159665.529,152784.41,143892.842,107557.175,125742.868,71348.691
0.604,09-22-2026 23:25:52:817,-182942.636,-106019.375,158810.575,153239.581,144332.009,106310.663,124796.629,70767.053
0.608,09-22-2026 23:25:52:821,-175584.71,-97995.189,158890.684,153483.484,144213.321,106488.226,124929.398,70610.278
0.612,09-22-2026 23:25:52:825,-184457.503,-106997.935,159668.882,153234.038,144339.921,107494.412,125818.953,71043.276
0.6160001,09-22-2026 23:25:52:829,-198524.126,-122067.749,160218.198,152834.925,144442.784,108160.27,126442.969,71513.602
0.62,09-22-2026 23:25:52:833,-197225.669,-121284.902,159634.55,152818.296,144244.971,107390.834,125779.122,71312.034
0.624,09-22-2026 23:25:52:837,-182076.997,-106215.087,158764.798,153178.606,143888.908,106295.867,124770.075,70752.122
0.628,09-22-2026 23:25:52:841,-174719.071,-98190.9,158890.684,153466.854,143778.133,106488.226,124889.567,70640.14
0.632,09-22-2026 23:25:52:845,-183159.045,-106997.935,159645.994,153200.779,143936.383,107464.818,125765.845,71088.069
0.636,09-22-2026 23:25:52:849,-197225.669,-122067.749,160195.31,152785.036,144102.546,108115.88,126389.861,71558.395
0.64,09-22-2026 23:25:52:853,-195494.392,-120893.478,159645.994,152807.209,143936.383,107361.24,125726.014,71304.568
0.6440001,09-22-2026 23:25:52:857,-180562.13,-105823.664,158787.687,153184.149,143627.795,106295.867,124756.798,70744.657
0.648,09-22-2026 23:25:52:861,-172771.385,-97799.477,158844.907,153422.508,143556.582,106458.632,124863.014,70625.209
0.652,09-22-2026 23:25:52:865,-181427.769,-106606.511,159600.217,153161.976,143754.395,107450.021,125752.568,71073.138
0.656,09-22-2026 23:25:52:869,-195494.392,-121676.325,160160.978,152779.493,143968.033,108115.88,126376.584,71521.067
0.66,09-22-2026 23:25:52:873,-193979.525,-121089.19,159634.55,152807.209,143841.433,107390.834,125739.291,71312.034
0.664,09-22-2026 23:25:52:877,-179047.263,-106019.375,158776.243,153184.149,143509.107,106310.663,124756.798,70759.588
0.668,09-22-2026 23:25:52:881,-171472.928,-98190.9,158844.907,153439.138,143437.894,106488.226,124889.567,70640.14
0.6720001,09-22-2026 23:25:52:885,-180129.311,-106997.935,159600.217,153189.692,143675.27,107479.615,125779.122,71058.207
0.6760001,09-22-2026 23:25:52:889,-194412.344,-122459.173,160183.866,152801.666,143912.645,108160.27,126416.415,71506.136
0.68,09-22-2026 23:25:52:893,-193113.886,-121676.325,159657.438,152823.839,143786.045,107420.427,125765.845,71312.034
0.684,09-22-2026 23:25:52:897,-178614.444,-106997.935,158799.131,153200.779,143509.107,106355.054,124783.352,70804.381
0.688,09-22-2026 23:25:52:901,-171040.108,-98778.036,158856.351,153450.224,143461.632,106517.819,124889.567,70617.744
0.692,09-22-2026 23:25:52:905,-179912.902,-107585.07,159623.105,153189.692,143683.182,107509.209,125792.399,71005.949
0.696,09-22-2026 23:25:52:909,-194195.934,-122654.885,160195.31,152779.493,143880.995,108175.067,126416.415,71476.274
0.7,09-22-2026 23:25:52:913,-193330.296,-122263.461,159668.882,152785.036,143738.57,107450.021,125765.845,71334.43
0.7040001,09-22-2026 23:25:52:917,-178761.474,-107343.537,158792.381,153152.231,143445.986,106377.003,124773.651,70824.989
0.708,09-22-2026 23:25:52:921,-171363.493,-99148.986,158849.825,153411.869,143382.149,106524.525,124879.867,70603.707
0.712,09-22-2026 23:25:52:925,-180124.26,-107724.679,159631.063,153190.095,143594.938,107527.671,125769.422,70987.263
0.716,09-22-2026 23:25:52:929,-194920.22,-123160.928,160216.991,152811.456,143781.128,108221.022,126406.714,71459.332
0.72,09-22-2026 23:25:52:933,-193752.118,-122589.215,159665.529,152806.047,143648.135,107468.663,125756.145,71311.81
0.724,09-22-2026 23:25:52:937,-179345.525,-107915.25,158792.381,153173.867,143360.87,106377.003,124747.097,70832.365
0.728,09-22-2026 23:25:52:941,-171752.861,-99339.557,158838.336,153422.687,143318.313,106524.525,124840.036,70537.322
0.7320001,09-22-2026 23:25:52:945,-180708.311,-108105.821,159608.085,153184.685,143563.019,107527.671,125729.591,70817.613
0.7360001,09-22-2026 23:25:52:949,-195114.904,-123351.499,160171.036,152800.638,143791.767,108191.518,126353.607,71267.554
0.74,09-22-2026 23:25:52:953,-194336.169,-122970.357,159665.529,152816.865,143690.693,107483.415,125729.591,71260.178
0.744,09-22-2026 23:25:52:957,-179929.576,-108105.821,158803.869,153184.685,143414.067,106391.756,124720.544,70817.613
0.748,09-22-2026 23:25:52:961,-172142.228,-99530.128,158838.336,153433.505,143371.51,106524.525,124800.205,70522.57
0.752,09-22-2026 23:25:52:965,-181097.678,-108296.392,159596.596,153190.095,143626.856,107512.919,125689.76,70869.246
0.756,09-22-2026 23:25:52:969,-195504.271,-123351.499,160159.547,152795.229,143903.481,108191.518,126327.053,71378.195
0.7600001,09-22-2026 23:25:52:973,-194725.537,-123160.928,159654.04,152806.047,143797.087,107483.415,125703.037,71289.682
0.7640001,09-22-2026 23:25:52:977,-180318.943,-108105.821,158792.381,153190.095,143483.224,106406.508,124720.544,70824.989
0.768,09-22-2026 23:25:52:981,-172726.279,-99720.699,158826.847,153438.914,143414.067,106539.277,124800.205,70574.203
0.772,09-22-2026 23:25:52:985,-181292.362,-108105.821,159562.13,153179.276,143680.053,107527.671,125689.76,70928.254
0.776,09-22-2026 23:25:52:989,-195893.639,-123351.499,160148.059,152768.183,143924.76,108221.022,126340.33,71415.075
0.78,09-22-2026 23:25:52:993,-195114.904,-122970.357,159608.085,152751.956,143813.046,107498.167,125703.037,71304.434
0.784,09-22-2026 23:25:52:997,-180902.994,-108296.392,158757.914,153119.776,143541.741,106421.26,124720.544,70802.861
0.788,09-22-2026 23:25:53:001,-172920.963,-99339.557,158803.869,153390.232,143504.503,106539.277,124786.928,70566.827
0.7920001,09-22-2026 23:25:53:005,-181487.045,-107915.25,159585.108,153163.049,143759.849,107542.423,125689.76,70898.75
0.7960001,09-22-2026 23:25:53:009,-196088.323,-123160.928,160171.036,152768.183,143993.916,108250.527,126353.607,71363.443
0.8,09-22-2026 23:25:53:013,-195698.955,-123160.928,159665.529,152784.41,143892.842,107557.175,125742.868,71348.691
0.804,09-22-2026 23:25:53:017,-181277.788,-108191.205,158795.242,153160.099,143623.101,106484.649,124752.417,70897.141
0.808,09-22-2026 23:25:53:021,-173660.984,-99776.578,158828.367,153418.529,143574.419,106605.885,124832.883,70641.75
0.812,09-22-2026 23:25:53:025,-182307.086,-108191.205,159601.29,153171.096,143790.784,107606.081,125731.424,71002.82
0.816,09-22-2026 23:25:53:029,-197128.975,-123681.769,160197.545,152786.199,143985.512,108318.342,126401.976,71504.795
0.8200001,09-22-2026 23:25:53:033,-196511.396,-123299.286,159667.541,152775.202,143866.511,107606.081,125771.657,71425.536
0.8240001,09-22-2026 23:25:53:037,-182307.086,-108573.688,158817.325,153154.6,143596.055,106514.958,124752.417,70985.206
0.8280001,09-22-2026 23:25:53:041,-174484.423,-99967.819,158861.492,153435.025,143547.373,106651.349,124819.472,70844.301
0.832,09-22-2026 23:25:53:045,-183130.525,-108382.447,159623.374,153209.585,143720.465,107651.545,125731.424,71293.437
0.836,09-22-2026 23:25:53:049,-197952.413,-123873.01,160197.545,152808.193,143931.421,108363.805,126388.565,71760.186
0.84,09-22-2026 23:25:53:053,-197540.694,-123681.769,159689.624,152802.694,143796.193,107651.545,125771.657,71566.441
0.844,09-22-2026 23:25:53:057,-183130.525,-108956.171,158817.325,153171.096,143487.873,106560.422,124765.828,71038.046
0.848,09-22-2026 23:25:53:061,-175307.861,-100159.061,158850.45,153435.025,143390.509,106666.503,124846.295,70923.56
0.8520001,09-22-2026 23:25:53:065,-183748.103,-108573.688,159601.29,153198.588,143623.101,107666.699,125744.835,71267.017
0.8560001,09-22-2026 23:25:53:069,-198775.852,-124064.252,160197.545,152802.694,143855.693,108378.96,126415.387,71672.12
0.86,09-22-2026 23:25:53:073,-198158.273,-123873.01,159689.624,152797.196,143715.056,107666.699,125798.479,71592.861
0.864,09-22-2026 23:25:53:077,-184159.822,-109338.654,158828.367,153171.096,143368.872,106590.731,124806.061,71143.725
0.868,09-22-2026 23:25:53:081,-176131.299,-100350.302,158828.367,153440.524,143298.554,106681.658,124859.706,70853.108
0.872,09-22-2026 23:25:53:085,-184777.401,-108764.93,159590.248,153204.087,143563.601,107666.699,125758.246,71222.984
0.876,09-22-2026 23:25:53:089,-199393.43,-124064.252,160197.545,152808.193,143828.648,108394.114,126428.798,71654.507
0.8800001,09-22-2026 23:25:53:093,-198981.711,-124064.252,159689.624,152797.196,143720.465,107697.008,125825.301,71619.281
0.8840001,09-22-2026 23:25:53:097,-184777.401,-109338.654,158828.367,153176.594,143428.373,106590.731,124819.472,71187.758
0.8880001,09-22-2026 23:25:53:101,-176543.018,-100350.302,158850.45,153473.515,143379.69,106696.812,124886.528,70879.527
0.892,09-22-2026 23:25:53:105,-184983.261,-108573.688,159590.248,153226.081,143650.147,107681.853,125785.068,71152.532
0.896,09-22-2026 23:25:53:109,-199805.149,-124064.252,160197.545,152835.685,143904.375,108409.269,126455.62,71636.894
0.9,09-22-2026 23:25:53:113,-199393.43,-124064.252,159689.624,152824.688,143785.375,107697.008,125825.301,71610.474
0.904,09-22-2026 23:25:53:117,-184757.284,-108941.777,158817.504,153185.848,143486.487,106602.354,124828.771,71208.009
0.9080001,09-22-2026 23:25:53:121,-176637.7,-100172.964,158851.836,153449.062,143445.047,106704.993,124898.285,70913.144
0.9120001,09-22-2026 23:25:53:125,-185310.892,-108552.052,159618.59,153214.458,143666.061,107702.059,125788.063,71286.061
0.9160001,09-22-2026 23:25:53:129,-200073.773,-124141.052,160213.683,152825.359,143887.075,108420.534,126469.299,71858.444
0.92,09-22-2026 23:25:53:133,-199520.165,-124141.052,159721.587,152808.193,143767.359,107716.722,125843.674,71737.03
0.924,09-22-2026 23:25:53:137,-184941.82,-109136.639,158851.836,153174.404,143468.069,106617.016,124842.674,71268.716
0.928,09-22-2026 23:25:53:141,-176637.7,-100172.964,158828.948,153414.73,143422.025,106704.993,124912.187,70982.524
0.932,09-22-2026 23:25:53:145,-185126.356,-108552.052,159595.702,153168.682,143693.688,107702.059,125801.966,71372.786
0.936,09-22-2026 23:25:53:149,-199704.701,-123751.327,160190.795,152785.305,143956.142,108420.534,126469.299,71893.134
0.9400001,09-22-2026 23:25:53:153,-199335.629,-123751.327,159698.699,152773.86,143827.217,107716.722,125857.577,71815.082
0.9440001,09-22-2026 23:25:53:157,-184757.284,-108746.914,158817.504,153128.627,143518.718,106617.016,124842.674,71338.096
0.9480001,09-22-2026 23:25:53:161,-176637.7,-99588.376,158828.948,153403.286,143472.674,106719.656,124926.09,71129.956
0.952,09-22-2026 23:25:53:165,-184941.82,-107772.602,159572.814,153168.682,143744.337,107702.059,125829.771,71528.89
0.956,09-22-2026 23:25:53:169,-199704.701,-123361.602,160167.907,152779.582,144002.187,108435.197,126524.911,72014.549
0.96,09-22-2026 23:25:53:173,-199151.093,-123361.602,159652.923,152750.972,143850.239,107731.385,125913.188,71893.134
0.964,09-22-2026 23:25:53:177,-184941.82,-108746.914,158794.616,153117.183,143491.092,106631.679,124926.09,71390.131
0.9680001,09-22-2026 23:25:53:181,-176637.7,-99588.376,158794.616,153391.841,143422.025,106719.656,124967.799,71060.577
0.9720001,09-22-2026 23:25:53:185,-185126.356,-107772.602,159538.482,153157.238,143712.106,107716.722,125871.48,71225.354
0.9760001,09-22-2026 23:25:53:189,-199704.701,-123166.74,160145.019,152750.972,143979.164,108449.859,126552.716,71693.667
0.98,09-22-2026 23:25:53:193,-199335.629,-123361.602,159641.479,152722.362,143850.239,107746.048,125954.896,71780.392
0.984,09-22-2026 23:25:53:197,-184941.82,-108357.189,158760.283,153082.851,143532.532,106646.342,124939.993,71433.493
0.988,09-22-2026 23:25:53:201,-176637.7,-99393.514,158760.283,153357.509,143481.883,106719.656,124995.604,70973.852
0.992,09-22-2026 23:25:53:205,-184941.82,-107577.739,159515.594,153128.627,143748.941,107716.722,125899.285,70982.524
0.9960001,09-22-2026 23:25:53:209,-200073.773,-123166.74,160145.019,152745.25,144002.187,108464.522,126594.424,71433.493
1,09-22-2026 23:25:53:213,-199889.237,-123556.465,159641.479,152722.362,143873.262,107775.373,125996.605,71754.375
1.004,09-22-2026 23:25:53:217,-185720.287,-108990.414,158775.393,153088.931,143541.606,106687.514,125003.83,71415.969
1.008,09-22-2026 23:25:53:221,-177256.486,-99733.126,158775.393,153378.475,143466.505,106760.604,125043.795,71178.191
1.012,09-22-2026 23:25:53:225,-185720.287,-108005.596,159529.273,153157.059,143691.81,107754.631,125936.344,71583.294
1.016,09-22-2026 23:25:53:229,-200531.939,-123368.755,160139.028,152765.322,143927.845,108500.151,126629.07,72094.077
1.02,09-22-2026 23:25:53:233,-200339.58,-123959.646,159640.138,152736.935,143799.099,107798.485,126016.274,71997.204
1.024,09-22-2026 23:25:53:237,-186105.005,-109187.378,158742.134,153077.576,143487.962,106687.514,125003.83,71468.809
1.028,09-22-2026 23:25:53:241,-177641.204,-99733.126,158742.134,153361.443,143445.047,106745.986,125030.473,71292.677
1.032,09-22-2026 23:25:53:245,-185720.287,-107808.633,159518.186,153140.027,143734.726,107740.013,125923.023,71733.006
1.036,09-22-2026 23:25:53:249,-200724.298,-123368.755,160127.942,152742.613,144024.404,108485.533,126629.07,72217.369
1.04,09-22-2026 23:25:53:253,-200339.58,-123762.682,159617.965,152708.549,143884.929,107783.867,126002.953,72050.044
1.044,09-22-2026 23:25:53:257,-186105.005,-109187.378,158753.22,153083.253,143579.157,106702.132,125017.151,71539.262
1.048,09-22-2026 23:25:53:261,-177448.845,-99733.126,158753.22,153361.443,143546.971,106775.222,125057.116,71371.936
1.052,09-22-2026 23:25:53:265,-185912.646,-108005.596,159518.186,153145.704,143842.014,107783.867,125962.988,71812.266
1.056,09-22-2026 23:25:53:269,-200724.298,-123565.718,160127.942,152742.613,144104.87,108529.387,126669.035,72279.015
1.06,09-22-2026 23:25:53:273,-201109.016,-124353.573,159673.397,152719.903,143938.573,107856.957,126082.882,72111.69
1.064,09-22-2026 23:25:53:277,-186874.442,-109975.232,158819.739,153083.253,143579.157,106760.604,125083.759,71609.714
1.068,09-22-2026 23:25:53:281,-178218.282,-100324.017,158797.566,153350.088,143514.784,106819.076,125110.403,71407.163
1.072,09-22-2026 23:25:53:285,-186682.083,-108596.487,159529.273,153105.963,143799.099,107798.485,125989.631,71838.685
1.076,09-22-2026 23:25:53:289,-201493.734,-124156.609,160150.115,152725.581,144067.32,108544.005,126695.678,72296.628
1.08,09-22-2026 23:25:53:293,-201493.734,-124747.5,159673.397,152702.871,143922.48,107871.575,126096.204,72094.077
1.084,09-22-2026 23:25:53:297,-187259.16,-110172.195,158797.566,153049.189,143600.615,106760.604,125083.759,71556.875
1.088,09-22-2026 23:25:53:301,-178795.359,-100717.944,158775.393,153327.379,143541.606,106819.076,125110.403,71363.13
1.092,09-22-2026 23:25:53:305,-186874.442,-108793.45,159507.1,153088.931,143831.285,107783.867,125989.631,71750.62
1.096,09-22-2026 23:25:53:309,-201686.093,-124353.573,160127.942,152691.517,144126.328,108544.005,126695.678,72217.369
1.1,09-22-2026 23:25:53:313,-201686.093,-124747.5,159651.224,152657.453,144002.946,107856.957,126096.204,72050.044
1.104,09-22-2026 23:25:53:317,-187668.912,-110346.628,158774.589,152996.081,143691.095,106751.842,125096.947,71538.949
1.108,09-22-2026 23:25:53:321,-178994.647,-100691.032,158741.463,153276.506,143628.152,106809.42,125110,71259.418
1.112,09-22-2026 23:25:53:325,-187283.389,-108967.258,159492.303,153062.064,143862.756,107788.248,125997.633,71554.058
1.116,09-22-2026 23:25:53:329,-201933.259,-124337.39,160099.6,152649.674,144097.36,108536.763,126702.517,72030.016
1.12,09-22-2026 23:25:53:333,-202126.02,-124928.549,159624.804,152605.686,143954.309,107860.22,126102.06,71977.132
1.124,09-22-2026 23:25:53:337,-187861.674,-110346.628,158741.463,152941.096,143628.152,106751.842,125096.947,71516.284
1.128,09-22-2026 23:25:53:341,-179187.409,-100691.032,158697.296,153221.521,143582.376,106780.631,125096.947,71229.198
1.132,09-22-2026 23:25:53:345,-187090.628,-108573.152,159459.178,153007.079,143879.922,107759.459,125971.526,71516.284
1.136,09-22-2026 23:25:53:349,-201933.259,-124140.337,160088.558,152611.184,144177.469,108522.368,126689.464,71705.156
1.14,09-22-2026 23:25:53:353,-202126.02,-124731.496,159602.721,152583.692,144063.028,107860.22,126115.114,71856.254
1.144,09-22-2026 23:25:53:357,-188247.196,-110346.628,158730.422,152946.595,143736.871,106751.842,125110,71531.394
1.148,09-22-2026 23:25:53:361,-179187.409,-100691.032,158697.296,153249.014,143685.373,106780.631,125110,71070.545
1.152,09-22-2026 23:25:53:365,-187283.389,-108573.152,159448.136,153034.571,143982.919,107773.853,125997.633,71070.545
1.156,09-22-2026 23:25:53:369,-202126.02,-123943.284,160077.516,152644.176,144257.578,108536.763,126715.571,71478.509
1.16,09-22-2026 23:25:53:373,-202511.543,-124928.549,159613.762,152600.187,144085.916,107874.615,126141.22,71803.37
1.164,09-22-2026 23:25:53:377,-188439.958,-110543.681,158719.38,152935.598,143702.539,106766.237,125136.107,71584.278
1.168,09-22-2026 23:25:53:381,-179572.931,-100888.085,158697.296,153243.515,143656.763,106809.42,125136.107,71153.649
1.172,09-22-2026 23:25:53:385,-187476.151,-108573.152,159448.136,153056.565,143965.753,107788.248,126023.74,71372.741
1.176,09-22-2026 23:25:53:389,-202511.543,-124337.39,160088.558,152660.671,144257.578,108565.552,126741.678,71810.925
1.18,09-22-2026 23:25:53:393,-202897.066,-125322.655,159613.762,152616.683,144120.248,107903.404,126154.274,71924.248
1.184,09-22-2026 23:25:53:397,-189018.242,-110937.787,158752.505,152974.087,143771.204,106795.026,125149.161,71644.717
1.188,09-22-2026 23:25:53:401,-180151.216,-101282.191,158697.296,153282.005,143719.705,106823.815,125162.214,71085.655
1.192,09-22-2026 23:25:53:405,-188247.196,-109361.364,159459.178,153078.559,144022.974,107817.037,126049.847,71100.765
1.196,09-22-2026 23:25:53:409,-203089.828,-124928.549,160099.6,152671.668,144309.076,108579.947,126754.731,71493.619
1.2,09-22-2026 23:25:53:413,-203475.351,-125716.761,159624.804,152622.181,144154.581,107932.193,126193.434,71856.254
1.204,09-22-2026 23:25:53:417,-189330.228,-111315.934,158736.769,152984.056,143802.004,106816.215,125177.592,71646.818
1.208,09-22-2026 23:25:53:421,-180661.238,-101704.684,158714.596,153295.461,143753.725,106844.557,125177.592,71317.264
1.212,09-22-2026 23:25:53:425,-188407.995,-109393.684,159457.39,153087.858,144019.263,107822.357,126043.946,71785.578
1.216,09-22-2026 23:25:53:429,-203532.616,-124963.909,160100.405,152695.719,144296.872,108601.762,126770.154,72253.891
1.22,09-22-2026 23:25:53:433,-203901.509,-125732.809,159634.773,152655.351,144170.138,107935.725,126184.091,72132.477
1.224,09-22-2026 23:25:53:437,-189699.121,-111315.934,158747.856,153001.356,143820.109,106830.386,125177.592,71629.473
1.228,09-22-2026 23:25:53:441,-180845.685,-101512.459,158703.51,153318.528,143765.794,106858.728,125177.592,71143.814
1.232,09-22-2026 23:25:53:445,-188592.442,-109009.234,159424.13,153087.858,144079.613,107808.186,126043.946,70675.501
1.236,09-22-2026 23:25:53:449,-203532.616,-124579.459,160078.232,152678.418,144387.397,108587.591,126770.154,70987.71
1.24,09-22-2026 23:25:53:453,-203901.509,-125540.584,159623.687,152626.518,144260.662,107949.896,126209.572,71542.748
1.244,09-22-2026 23:25:53:457,-189883.568,-111315.934,158758.942,152989.823,143940.809,106858.728,125203.073,71733.543
1.248,09-22-2026 23:25:53:461,-180661.238,-101320.234,158703.51,153283.927,143892.529,106872.899,125190.333,70692.846
1.252,09-22-2026 23:25:53:465,-188592.442,-109009.234,159424.13,153059.024,144200.312,107836.528,126069.427,70051.082
1.256,09-22-2026 23:25:53:469,-203348.169,-124579.459,160078.232,152655.351,144483.956,108615.933,126782.894,70172.497
1.26,09-22-2026 23:25:53:473,-204085.956,-125732.809,159634.773,152614.984,144314.977,107978.238,126235.053,71265.229
1.264,09-22-2026 23:25:53:477,-190068.014,-111315.934,158747.856,152966.756,143940.809,106872.899,125228.554,71733.543
1.268,09-22-2026 23:25:53:481,-181030.131,-101512.459,158692.424,153266.627,143874.424,106872.899,125203.073,70814.26
1.272,09-22-2026 23:25:53:485,-188592.442,-109009.234,159413.044,153041.724,144182.207,107836.528,126069.427,70276.567
1.276,09-22-2026 23:25:53:489,-203532.616,-124579.459,160067.145,152655.351,144483.956,108615.933,126795.635,70571.431
1.28,09-22-2026 23:25:53:493,-204085.956,-125540.584,159601.514,152586.15,144339.117,107964.067,126222.313,71438.679
1.284,09-22-2026 23:25:53:497,-190252.461,-111508.159,158747.856,152955.222,143995.123,106872.899,125215.814,71750.888
1.288,09-22-2026 23:25:53:501,-181030.131,-101320.234,158692.424,153289.694,143934.774,106872.899,125190.333,70779.57
1.292,09-22-2026 23:25:53:505,-188776.888,-108817.009,159413.044,153064.791,144236.522,107836.528,126069.427,70051.082
1.296,09-22-2026 23:25:53:509,-203532.616,-124195.009,160044.972,152655.351,144520.166,108615.933,126795.635,70345.947
1.3,09-22-2026 23:25:53:513,-204085.956,-125348.359,159612.6,152620.751,144375.327,107992.409,126247.794,71542.748
1.304,09-22-2026 23:25:53:517,-190082.006,-110927.416,158724.789,152981.642,144017.743,106885.908,125234.053,71703.904
1.308,09-22-2026 23:25:53:521,-181092.314,-101137.62,158668.91,153276.149,143935.265,106900.034,125220.999,70721.009
1.312,09-22-2026 23:25:53:525,-188797.765,-108623.935,159395.341,153068.903,144188.198,107860.623,126082.525,70206.159
1.316,09-22-2026 23:25:53:529,-203658.277,-124172.434,160054.718,152676.228,144474.121,108637.569,126813.516,70393.377
1.32,09-22-2026 23:25:53:533,-204025.203,-125132.218,159607.683,152616.236,144336.658,108001.886,126265.273,71376.273
1.324,09-22-2026 23:25:53:537,-190265.47,-111119.373,158724.789,152959.827,143990.251,106900.034,125260.159,71703.904
1.328,09-22-2026 23:25:53:541,-180908.851,-100945.664,158657.734,153259.787,143929.767,106900.034,125220.999,70299.768
1.332,09-22-2026 23:25:53:545,-188430.838,-108431.978,159395.341,153057.996,144248.682,107860.623,126095.578,68989.24
1.336,09-22-2026 23:25:53:549,-203107.888,-123788.521,160043.542,152654.413,144551.101,108651.696,126826.57,68614.804
1.34,09-22-2026 23:25:53:553,-203841.74,-125132.218,159596.507,152599.874,144413.637,108016.012,126278.326,70252.963
1.344,09-22-2026 23:25:53:557,-189898.543,-110735.459,158724.789,152954.373,144056.233,106900.034,125273.213,71516.686
1.348,09-22-2026 23:25:53:561,-180725.387,-100753.707,158657.734,153265.241,143990.251,106914.16,125247.106,70159.354
1.352,09-22-2026 23:25:53:565,-188063.912,-108048.064,159395.341,153052.542,144298.168,107874.749,126121.685,68567.999
1.356,09-22-2026 23:25:53:569,-203107.888,-123788.521,160065.894,152659.867,144595.089,108679.948,126865.73,68146.758
1.36,09-22-2026 23:25:53:573,-203841.74,-124940.261,159618.859,152605.328,144402.64,108058.391,126317.486,69972.136
1.364,09-22-2026 23:25:53:577,-190265.47,-110927.416,158747.141,152970.735,144012.245,106956.539,125312.373,71469.882
1.368,09-22-2026 23:25:53:581,-180725.387,-100753.707,158668.91,153292.51,143940.764,106942.413,125273.213,70065.745
1.372,09-22-2026 23:25:53:585,-188430.838,-108240.021,159395.341,153101.626,144270.676,107903.002,126134.738,67865.931
1.376,09-22-2026 23:25:53:589,-203107.888,-123596.564,160043.542,152698.043,144589.59,108679.948,126865.73,66883.036
1.38,09-22-2026 23:25:53:593,-203841.74,-125132.218,159596.507,152621.69,144441.13,108058.391,126317.486,68942.436
1.384,09-22-2026 23:25:53:597,-190082.006,-110927.416,158713.613,152959.827,144083.726,106956.539,125312.373,70908.227
1.388,09-22-2026 23:25:53:601,-180725.387,-100753.707,158646.558,153276.149,144012.245,106928.287,125273.213,69597.7
1.392,09-22-2026 23:25:53:605,-188063.912,-107856.108,159372.989,153074.357,144325.661,107888.875,126134.738,66929.84
1.396,09-22-2026 23:25:53:609,-202740.962,-123212.65,160021.19,152665.32,144628.08,108679.948,126878.783,65759.726
1.4,09-22-2026 23:25:53:613,-203658.277,-124748.304,159585.331,152605.328,144485.118,108072.517,126356.647,68380.781
1.404,09-22-2026 23:25:53:617,-189726.033,-110461.785,158718.575,152953.792,144124.227,106963.513,125346.839,70758.515
1.408,09-22-2026 23:25:53:621,-180486.358,-100318.608,158640.657,153261.575,144035.312,106963.513,125308.618,69650.763
1.412,09-22-2026 23:25:53:625,-187801.1,-107478.497,159364.183,153050.352,144302.058,107919.721,126174.972,67277.007
1.416,09-22-2026 23:25:53:629,-202815.572,-122991.591,160032.053,152658.078,144589.724,108709.631,126913.92,66090.13
1.42,09-22-2026 23:25:53:633,-203585.545,-124383.792,159609.069,152597.729,144443.276,108086.018,126366.079,68384.76
1.424,09-22-2026 23:25:53:637,-190111.019,-110461.785,158729.706,152941.722,144092.845,106991.229,125359.58,70600.265
1.428,09-22-2026 23:25:53:641,-180293.865,-100119.722,158640.657,153249.506,144019.621,106963.513,125295.877,69255.137
1.432,09-22-2026 23:25:53:645,-187801.1,-107279.612,159375.314,153056.386,144338.67,107919.721,126162.231,66327.505
1.436,09-22-2026 23:25:53:649,-202430.585,-122792.706,160020.922,152658.078,144647.258,108723.489,126901.18,64903.252
1.44,09-22-2026 23:25:53:653,-203393.051,-124383.792,159597.937,152573.589,144500.809,108113.734,126366.079,67356.133
1.444,09-22-2026 23:25:53:657,-189533.539,-110262.899,158729.706,152893.442,144124.227,106991.229,125346.839,69888.138
1.448,09-22-2026 23:25:53:661,-179908.878,-99920.836,158640.657,153207.261,144056.233,106963.513,125295.877,68701.261
1.452,09-22-2026 23:25:53:665,-187031.127,-106881.84,159353.052,153008.107,144370.052,107919.721,126149.491,65219.753
1.456,09-22-2026 23:25:53:669,-202045.599,-122394.934,160020.922,152603.764,144662.949,108723.489,126888.439,62925.123
1.46,09-22-2026 23:25:53:673,-202815.572,-123986.021,159586.806,152525.309,144464.197,108113.734,126353.339,65615.379
1.464,09-22-2026 23:25:53:677,-189148.553,-110064.013,158729.706,152875.337,144061.463,107005.087,125359.58,69017.761
1.468,09-22-2026 23:25:53:681,-179523.892,-99523.064,158629.526,153177.086,143998.7,106963.513,125295.877,68305.635
1.472,09-22-2026 23:25:53:685,-186838.634,-106682.954,159353.052,152977.932,144333.439,107919.721,126149.491,64665.877
1.476,09-22-2026 23:25:53:689,-201468.119,-121997.162,160009.791,152585.659,144636.797,108723.489,126901.18,61975.621
1.48,09-22-2026 23:25:53:693,-202623.079,-123588.249,159586.806,152513.239,144474.658,108113.734,126366.079,64903.252
1.484,09-22-2026 23:25:53:697,-188763.566,-109666.241,158707.444,152845.162,144108.536,107018.945,125372.32,68384.76
1.488,09-22-2026 23:25:53:701,-179138.905,-99125.293,158618.395,153165.016,144035.312,106963.513,125295.877,67672.633
1.492,09-22-2026 23:25:53:705,-186068.661,-105887.411,159353.052,152959.827,144354.361,107919.721,126136.75,63874.625
1.496,09-22-2026 23:25:53:709,-201083.133,-121400.505,159998.659,152549.449,144657.718,108723.489,126888.439,60709.618
1.5,09-22-2026 23:25:53:713,-201853.106,-122991.591,159575.675,152495.134,144511.27,108127.592,126366.079,63004.248
1.504,09-22-2026 23:25:53:717,-188192.211,-109094.216,158731.092,152852.762,144145.372,107024.444,125369.325,66949.018
1.508,09-22-2026 23:25:53:721,-178429.282,-98418.218,158630.509,153161.753,144035.535,106982.333,125292.346,66306.405
1.512,09-22-2026 23:25:53:725,-185801.29,-105669.839,159356.941,152955.759,144302.281,107936.842,126151.949,62193.684
1.516,09-22-2026 23:25:53:729,-200545.305,-121180.251,160016.317,152555.216,144610.869,108750.982,126908.913,60522.891
1.52,09-22-2026 23:25:53:733,-201541.522,-122993.156,159591.634,152469.385,144453.96,108147.396,126382.888,64121.522
1.524,09-22-2026 23:25:53:737,-187992.968,-109094.216,158731.092,152806.986,144072.147,107038.481,125369.325,67977.198
1.528,09-22-2026 23:25:53:741,-178230.039,-98619.652,158630.509,153127.42,143983.232,106996.37,125292.346,67463.108
1.532,09-22-2026 23:25:53:745,-185402.803,-105669.839,159334.589,152944.315,144276.13,107950.879,126126.29,63735.955
1.536,09-22-2026 23:25:53:749,-200146.818,-121180.251,160005.141,152549.494,144584.718,108765.019,126896.084,60908.459
1.54,09-22-2026 23:25:53:753,-201143.035,-122993.156,159580.458,152457.941,144417.348,108147.396,126357.228,63221.864
1.544,09-22-2026 23:25:53:757,-187594.481,-109094.216,158731.092,152806.986,144040.766,107052.518,125369.325,66691.973
1.548,09-22-2026 23:25:53:761,-177632.308,-98418.218,158608.157,153121.698,143962.311,106982.333,125279.516,65792.315
1.552,09-22-2026 23:25:53:765,-184805.073,-105468.405,159312.237,152921.427,144297.051,107936.842,126139.119,60779.936
1.556,09-22-2026 23:25:53:769,-199549.088,-120777.383,160005.141,152526.605,144626.56,108765.019,126908.913,55896.08
1.56,09-22-2026 23:25:53:773,-200545.305,-122590.288,159580.458,152440.775,144438.269,108161.433,126382.888,57309.828
1.564,09-22-2026 23:25:53:777,-186797.507,-108691.348,158697.564,152778.375,144045.996,107038.481,125356.495,61808.117
1.568,09-22-2026 23:25:53:781,-176835.335,-97813.916,158608.157,153104.532,143978.002,106982.333,125279.516,62193.684
1.572,09-22-2026 23:25:53:785,-183808.855,-104662.669,159334.589,152927.149,144302.281,107936.842,126126.29,57566.873
1.576,09-22-2026 23:25:53:789,-198552.871,-120173.081,159982.79,152515.161,144579.487,108750.982,126870.424,53068.585
1.58,09-22-2026 23:25:53:793,-199947.575,-121985.986,159569.282,152440.775,144422.578,108147.396,126370.058,54867.9
1.584,09-22-2026 23:25:53:797,-186000.533,-108087.046,158708.74,152778.375,144061.687,107038.481,125356.495,59751.756
1.588,09-22-2026 23:25:53:801,-176237.604,-97411.048,158596.982,153115.976,143998.923,106982.333,125279.516,60522.891
1.592,09-22-2026 23:25:53:805,-183211.125,-104058.367,159301.062,152938.593,144312.742,107922.805,126126.29,56153.125
1.596,09-22-2026 23:25:53:809,-198154.384,-119770.213,159971.614,152538.05,144595.178,108750.982,126883.254,51654.837
1.6,09-22-2026 23:25:53:813,-199349.844,-121583.119,159558.107,152435.053,144401.657,108161.433,126370.058,53454.152
1.604,09-22-2026 23:25:53:817,-185751.043,-107861.114,158685.629,152766.976,143985.199,107052.294,125357.971,58308.37
1.608,09-22-2026 23:25:53:821,-175605.05,-96946.981,158572.976,153089.065,143835.264,106981.439,125253.186,59036.858
1.612,09-22-2026 23:25:53:825,-182556.934,-103892.339,159293.954,152901.668,144089.001,107930.897,126104.564,54561.86
1.616,09-22-2026 23:25:53:829,-197400.146,-119370.564,159969.87,152497.593,144371.571,108738.644,126851.157,50086.862
1.62,09-22-2026 23:25:53:833,-198715.368,-121553.391,159564.32,152415.607,144204.336,108171.804,126340.33,51960.117
1.624,09-22-2026 23:25:53:837,-185187.377,-107662.676,158685.629,152743.551,143812.197,107066.465,125318.676,56955.464
1.628,09-22-2026 23:25:53:841,-175041.384,-96946.981,158550.445,153065.64,143719.929,106981.439,125213.891,57788.021
1.632,09-22-2026 23:25:53:845,-181993.268,-103693.9,159293.954,152884.099,144054.4,107945.068,126078.367,53417.093
1.636,09-22-2026 23:25:53:849,-197024.369,-119569.003,159969.87,152485.881,144371.571,108781.157,126851.157,48942.095
1.64,09-22-2026 23:25:53:853,-198527.479,-121553.391,159541.79,152380.47,144198.569,108185.975,126340.33,50815.35
1.644,09-22-2026 23:25:53:857,-184999.488,-108059.553,158663.098,152702.558,143806.43,107066.465,125318.676,55810.697
1.648,09-22-2026 23:25:53:861,-174853.495,-96946.981,158539.18,153036.359,143742.996,106981.439,125200.793,56747.324
1.652,09-22-2026 23:25:53:865,-181993.268,-104090.778,159271.423,152866.531,144106.301,107930.897,126065.269,52272.326
1.656,09-22-2026 23:25:53:869,-197024.369,-119569.003,159947.34,152468.312,144452.306,108766.986,126824.96,47797.328
1.66,09-22-2026 23:25:53:873,-198715.368,-121950.268,159541.79,152380.47,144262.003,108200.146,126327.232,49670.583
1.664,09-22-2026 23:25:53:877,-185187.377,-108257.992,158674.363,152702.558,143841.03,107080.636,125305.578,54665.93
1.668,09-22-2026 23:25:53:881,-175041.384,-97343.859,158550.445,153030.503,143742.996,106995.61,125187.695,55602.557
1.672,09-22-2026 23:25:53:885,-181993.268,-104090.778,159260.158,152866.531,144065.934,107930.897,126039.073,51231.629
1.676,09-22-2026 23:25:53:889,-197024.369,-119965.881,159947.34,152474.168,144383.105,108781.157,126824.96,46652.561
1.68,09-22-2026 23:25:53:893,-198527.479,-122148.707,159530.525,152374.614,144215.869,108185.975,126314.134,48525.816
1.684,09-22-2026 23:25:53:897,-185187.377,-108654.87,158663.098,152702.558,143829.497,107066.465,125305.578,53625.232
1.688,09-22-2026 23:25:53:901,-174853.495,-97542.298,158539.18,153018.791,143742.996,106981.439,125187.695,54665.93
1.692,09-22-2026 23:25:53:905,-181805.379,-104289.216,159248.893,152837.25,144071.7,107916.726,126025.975,50295.001
1.696,09-22-2026 23:25:53:909,-196648.591,-119767.442,159924.809,152444.887,144388.872,108752.815,126798.764,45820.003
1.7,09-22-2026 23:25:53:913,-198339.59,-122148.707,159519.259,152345.333,144227.403,108171.804,126301.035,47589.189
1.704,09-22-2026 23:25:53:917,-184800.915,-108442.617,158652.682,152684.498,143842.953,107057.748,125265.926,52678.994
1.708,09-22-2026 23:25:53:921,-174884.251,-97745.43,158540.476,153041.903,143739.241,106986.446,125159.711,53540.385
1.712,09-22-2026 23:25:53:925,-181749.634,-104457.391,159247.373,152871.448,144037.413,107913.373,125996.158,49233.428
1.716,09-22-2026 23:25:53:929,-196624.63,-119978.8,159920.607,152492.05,144374.477,108768.998,126779.497,44735.05
1.72,09-22-2026 23:25:53:933,-198340.976,-122495.785,159539.108,152409.572,144238.355,108198.581,126274.973,46553.543
1.724,09-22-2026 23:25:53:937,-184991.62,-108862.115,158675.123,152728.486,143855.917,107086.269,125252.649,51626.182
1.728,09-22-2026 23:25:53:941,-174693.546,-97745.43,158529.256,153052.9,143765.169,106986.446,125133.157,52678.994
1.732,09-22-2026 23:25:53:945,-181368.224,-104457.391,159224.932,152871.448,144095.751,107927.633,125969.604,48372.036
1.736,09-22-2026 23:25:53:949,-196624.63,-120188.549,159931.828,152481.053,144439.297,108768.998,126752.943,43777.948
1.74,09-22-2026 23:25:53:953,-198340.976,-122705.534,159550.328,152387.578,144309.657,108212.842,126274.973,45596.441
1.744,09-22-2026 23:25:53:957,-185182.325,-109281.613,158686.344,152739.483,143946.665,107100.529,125292.48,50669.08
1.748,09-22-2026 23:25:53:961,-174693.546,-98164.928,158540.476,153069.395,143862.399,106986.446,125159.711,51817.602
1.752,09-22-2026 23:25:53:965,-181558.929,-105086.637,159258.593,152904.439,144192.981,107941.894,126022.712,47510.644
1.756,09-22-2026 23:25:53:969,-196624.63,-120817.795,159954.269,152530.539,144510.599,108797.518,126819.328,43012.267
1.76,09-22-2026 23:25:53:973,-198722.386,-123544.529,159561.549,152426.067,144322.621,108241.362,126328.081,44735.05
1.764,09-22-2026 23:25:53:977,-185563.735,-110120.608,158686.344,152750.481,143940.183,107129.05,125319.034,49807.689
1.768,09-22-2026 23:25:53:981,-175074.956,-99003.923,158529.256,153080.392,143862.399,107000.706,125186.265,50956.211
1.772,09-22-2026 23:25:53:985,-181749.634,-105506.135,159247.373,152909.938,144218.909,107941.894,126035.988,46649.253
1.776,09-22-2026 23:25:53:989,-197006.04,-121447.041,159954.269,152514.044,144562.455,108797.518,126819.328,42055.165
1.78,09-22-2026 23:25:53:993,-198913.091,-124173.775,159561.549,152409.572,144426.333,108227.102,126341.358,43873.658
1.784,09-22-2026 23:25:53:997,-185754.441,-110749.854,158675.123,152728.486,144024.449,107114.79,125319.034,48946.297
1.788,09-22-2026 23:25:54:001,-175074.956,-99423.42,158529.256,153063.897,143914.255,106986.446,125172.988,50094.819
1.792,09-22-2026 23:25:54:005,-181940.339,-106135.381,159236.152,152898.941,144192.981,107927.633,126022.712,45787.861
1.796,09-22-2026 23:25:54:009,-197006.04,-121656.79,159931.828,152497.548,144452.261,108783.258,126806.051,41385.194
1.8,09-22-2026 23:25:54:013,-198913.091,-124383.524,159561.549,152382.079,144238.355,108227.102,126328.081,43107.977
1.804,09-22-2026 23:25:54:017,-185702.629,-111039.22,158683.17,152695.585,143799.277,107100.619,125297.04,48160.589
1.808,09-22-2026 23:25:54:021,-175280.234,-99740.949,158533.234,153044.629,143651.085,106986.535,125139.326,49244.738
1.812,09-22-2026 23:25:54:025,-181912.667,-106083.838,159225.244,152864.653,143938.752,107927.723,125941.038,45088.833
1.816,09-22-2026 23:25:54:029,-196883.016,-121742.844,159928.788,152466.524,144278.722,108783.347,126729.608,40571.545
1.82,09-22-2026 23:25:54:033,-198777.997,-124319.643,159548.182,152351.994,144139.247,108227.191,126230.18,42378.46
1.824,09-22-2026 23:25:54:037,-185702.629,-111039.22,158671.636,152673.769,143746.974,107114.879,125218.183,47347.477
1.828,09-22-2026 23:25:54:041,-175090.736,-99344.519,158487.1,153006.453,143651.085,106972.275,125060.469,48612.317
1.832,09-22-2026 23:25:54:045,-181723.169,-105885.623,159202.177,152853.746,143991.055,107913.462,125914.753,44275.721
1.836,09-22-2026 23:25:54:049,-196883.016,-121544.629,159905.721,152477.432,144331.025,108783.347,126703.322,39848.779
1.84,09-22-2026 23:25:54:053,-198967.495,-124319.643,159536.649,152373.809,144182.833,108241.452,126230.18,41565.349
1.844,09-22-2026 23:25:54:057,-185702.629,-110841.004,158660.103,152679.223,143773.126,107114.879,125205.04,46715.057
1.848,09-22-2026 23:25:54:061,-175280.234,-99542.734,158498.634,153028.268,143651.085,106986.535,125060.469,47799.206
1.852,09-22-2026 23:25:54:065,-181723.169,-105885.623,159202.177,152881.015,143973.621,107927.723,125927.895,43643.301
1.856,09-22-2026 23:25:54:069,-197072.515,-121544.629,159882.654,152477.432,144270.005,108783.347,126729.608,39126.013
1.86,09-22-2026 23:25:54:073,-199156.994,-124319.643,159502.048,152368.355,144043.358,108227.191,126256.466,40932.928
1.864,09-22-2026 23:25:54:077,-186081.625,-111039.22,158648.569,152701.038,143607.499,107114.879,125244.468,45901.945
1.868,09-22-2026 23:25:54:081,-175090.736,-99146.303,158464.033,153044.629,143476.742,106972.275,125073.612,47257.131
1.872,09-22-2026 23:25:54:085,-181912.667,-105687.407,159167.577,152881.015,143773.126,107913.462,125927.895,42920.535
1.876,09-22-2026 23:25:54:089,-196883.016,-121346.414,159882.654,152493.793,144095.662,108769.087,126729.608,38493.593
1.88,09-22-2026 23:25:54:093,-198967.495,-123923.212,159513.582,152373.809,143903.884,108227.191,126243.323,40300.508
1.884,09-22-2026 23:25:54:097,-186081.625,-110642.789,158648.569,152701.038,143441.873,107114.879,125231.326,45269.524
1.888,09-22-2026 23:25:54:101,-175280.234,-99146.303,158464.033,153039.176,143223.943,106972.275,125060.469,46534.365
1.892,09-22-2026 23:25:54:105,-181912.667,-105489.192,159167.577,152864.653,143485.459,107913.462,125927.895,42197.769
1.896,09-22-2026 23:25:54:109,-196883.016,-121148.198,159882.654,152488.339,143807.995,108783.347,126729.608,37770.827
1.9,09-22-2026 23:25:54:113,-199156.994,-124121.427,159513.582,152362.901,143651.085,108241.452,126269.609,39397.051
1.904,09-22-2026 23:25:54:117,-186180.688,-110855.265,158624.832,152660.358,143213.438,107131.956,125258.192,44456.904
1.908,09-22-2026 23:25:54:121,-175725.705,-99446.934,158453.841,153006.676,143037.396,106988.458,125112.146,45657.908
1.912,09-22-2026 23:25:54:125,-182114.861,-105544.49,159160.603,152836.356,143325.465,107921.196,125948.593,41540.181
1.916,09-22-2026 23:25:54:129,-197410.115,-121476.814,159867.365,152433.265,143669.548,108782.185,126745.209,37079.309
1.92,09-22-2026 23:25:54:133,-199733.445,-124230.549,159502.585,152308.363,143525.513,108251.242,126280.517,38795.029
1.924,09-22-2026 23:25:54:137,-186761.521,-111248.655,158636.231,152614.94,143117.415,107146.306,125258.192,43770.617
1.928,09-22-2026 23:25:54:141,-175725.705,-99250.239,158431.042,152955.58,143005.388,106959.758,125072.315,45143.192
1.932,09-22-2026 23:25:54:145,-182308.472,-105544.49,159137.804,152790.937,143349.471,107892.496,125908.762,40939.679
1.936,09-22-2026 23:25:54:149,-197410.115,-121083.423,159844.567,152404.878,143685.552,108753.486,126705.378,36393.021
1.94,09-22-2026 23:25:54:153,-199927.056,-124230.549,159491.185,152297.008,143509.509,108236.892,126240.686,38022.955
1.944,09-22-2026 23:25:54:157,-186761.521,-110855.265,158624.832,152631.972,143085.407,107117.606,125218.362,43084.329
1.948,09-22-2026 23:25:54:161,-175919.315,-99250.239,158442.442,152989.644,142965.379,106959.758,125059.038,44371.118
1.952,09-22-2026 23:25:54:165,-182308.472,-105151.1,159137.804,152847.711,143293.457,107892.496,125895.485,40253.391
1.956,09-22-2026 23:25:54:169,-197603.726,-121083.423,159855.966,152450.297,143629.538,108782.185,126731.932,35706.733
1.96,09-22-2026 23:25:54:173,-200120.667,-124230.549,159502.585,152336.75,143437.492,108251.242,126267.24,37422.453
1.964,09-22-2026 23:25:54:177,-187342.353,-111051.96,158647.631,152660.358,142997.386,107146.306,125258.192,42398.041
1.968,09-22-2026 23:25:54:181,-176306.537,-99250.239,158442.442,152995.322,142821.344,106974.108,125072.315,43770.617
1.972,09-22-2026 23:25:54:185,-182695.694,-105347.795,159137.804,152830.679,143133.419,107906.846,125908.762,39652.889
1.976,09-22-2026 23:25:54:189,-197797.337,-120886.728,159833.167,152444.619,143469.5,108767.835,126718.655,35192.017
1.98,09-22-2026 23:25:54:193,-200314.277,-124230.549,159491.185,152325.395,143293.457,108236.892,126267.24,36907.737
1.984,09-22-2026 23:25:54:197,-187535.964,-111248.655,158613.432,152637.649,142821.344,107131.956,125258.192,41969.111
1.988,09-22-2026 23:25:54:201,-176500.148,-99446.934,158419.643,152989.644,142669.307,106959.758,125072.315,43341.687
1.992,09-22-2026 23:25:54:205,-182695.694,-105347.795,159103.606,152819.324,142989.384,107863.797,125895.485,39223.959
1.996,09-22-2026 23:25:54:209,-197797.337,-121083.423,159821.768,152421.91,143341.469,108753.486,126718.655,34763.087
2,09-22-2026 23:25:54:213,-200314.277,-124230.549,159456.987,152285.654,143181.43,108222.542,126267.24,36393.021
2.004,09-22-2026 23:25:54:217,-187731.452,-111301.093,158598.278,152601.528,142742.04,107123.373,125273.392,41337.45
2.008,09-22-2026 23:25:54:221,-176739.043,-99482.429,158395.503,152947.846,142575.832,106950.102,125072.226,42771.538
2.012,09-22-2026 23:25:54:225,-183020.42,-105491.919,159093.95,152783.203,142895.462,107859.773,125903.711,38648.535
2.016,09-22-2026 23:25:54:229,-197938.689,-120916.277,159792.398,152391.467,143266.233,108740.566,126708.374,34256.641
2.02,09-22-2026 23:25:54:233,-200686.792,-124521.971,159454.439,152266.565,143125.596,108235.193,126265.809,35780.36
2.024,09-22-2026 23:25:54:237,-187927.745,-111501.409,158575.747,152578.819,142697.292,107123.373,125259.981,40710.037
2.028,09-22-2026 23:25:54:241,-176935.336,-99482.429,158361.707,152936.492,142563.047,106935.663,125058.815,42144.125
2.032,09-22-2026 23:25:54:245,-183020.42,-105291.603,159048.889,152777.526,142914.64,107845.334,125890.3,38110.752
2.036,09-22-2026 23:25:54:249,-198134.982,-120916.277,159769.867,152363.08,143285.411,108740.566,126708.374,33539.597
2.04,09-22-2026 23:25:54:253,-201079.378,-124521.971,159454.439,152226.824,143131.988,108235.193,126279.22,34973.685
2.044,09-22-2026 23:25:54:257,-188124.038,-111501.409,158587.013,152539.078,142697.292,107137.812,125273.392,39992.993
2.048,09-22-2026 23:25:54:261,-177327.922,-99682.745,158395.503,152896.75,142569.44,106964.541,125085.637,41337.45
2.052,09-22-2026 23:25:54:265,-183413.006,-105692.235,159071.42,152737.785,142927.425,107874.213,125930.533,37214.448
2.056,09-22-2026 23:25:54:269,-198723.861,-121517.226,159792.398,152363.08,143291.803,108769.445,126762.018,32643.292
2.06,09-22-2026 23:25:54:273,-201471.964,-124922.603,159454.439,152232.501,143119.203,108264.072,126332.864,34167.011
2.064,09-22-2026 23:25:54:277,-188909.21,-112102.358,158564.482,152527.723,142684.506,107166.69,125313.625,39186.318
2.068,09-22-2026 23:25:54:281,-177524.215,-99883.062,158361.707,152891.073,142563.047,106964.541,125112.459,40620.406
2.072,09-22-2026 23:25:54:285,-183805.592,-105892.552,159071.42,152749.139,142933.818,107888.652,125943.944,36497.404
2.076,09-22-2026 23:25:54:289,-198723.861,-121316.909,159758.602,152351.725,143317.374,108769.445,126762.018,32015.879
2.08,09-22-2026 23:25:54:293,-201668.257,-124922.603,159431.909,152238.179,143183.129,108278.511,126332.864,33539.597
2.084,09-22-2026 23:25:54:297,-188909.21,-112102.358,158575.747,152550.432,142754.825,107166.69,125327.036,38558.905
2.088,09-22-2026 23:25:54:301,-177720.508,-100083.378,158361.707,152908.105,142626.973,106964.541,125112.459,39992.993
2.092,09-22-2026 23:25:54:305,-183805.592,-105692.235,159048.889,152760.494,142984.959,107874.213,125943.944,35959.621
2.096,09-22-2026 23:25:54:309,-198920.154,-121316.909,159781.132,152374.435,143374.907,108769.445,126762.018,31388.465
2.1,09-22-2026 23:25:54:313,-201668.257,-124922.603,159443.174,152238.179,143240.663,108264.072,126332.864,32822.553
2.104,09-22-2026 23:25:54:317,-189250.432,-112232.892,158585.806,152554.366,142795.818,107175.855,125332.356,37794.073
2.108,09-22-2026 23:25:54:321,-178039.155,-100092.676,158367.519,152909.223,142615.663,106955.914,125102.088,39322.128
2.112,09-22-2026 23:25:54:325,-184031.389,-105864.254,159056.846,152768.407,142948.257,107865.004,125941.888,35332.207
2.116,09-22-2026 23:25:54:329,-198915.326,-121387.809,159757.663,152357.224,143322.425,108744.768,126754.597,30748.043
2.12,09-22-2026 23:25:54:333,-202008.093,-124970.168,159435.977,152222.041,143197.703,108275.561,126334.697,32191.206
2.124,09-22-2026 23:25:54:337,-189443.73,-112232.892,158585.806,152531.836,142775.031,107175.855,125332.356,37114.938
2.128,09-22-2026 23:25:54:341,-178039.155,-100092.676,158344.541,152881.059,142636.45,106941.251,125102.088,38727.884
2.132,09-22-2026 23:25:54:345,-183838.091,-105466.214,159010.891,152723.345,142996.76,107850.341,125914.797,34737.964
2.136,09-22-2026 23:25:54:349,-198915.326,-121188.789,159734.685,152334.693,143377.858,108744.768,126754.597,30068.908
2.14,09-22-2026 23:25:54:353,-201814.795,-124771.148,159412.999,152193.877,143225.419,108260.898,126334.697,31596.962
2.144,09-22-2026 23:25:54:357,-189443.73,-112232.892,158551.339,152503.673,142781.96,107161.192,125318.81,36520.694
2.148,09-22-2026 23:25:54:361,-178039.155,-99893.656,158321.563,152858.529,142636.45,106941.251,125088.543,38133.641
2.152,09-22-2026 23:25:54:365,-184031.389,-105466.214,158999.402,152712.08,142989.831,107850.341,125914.797,34143.72
2.156,09-22-2026 23:25:54:369,-198915.326,-120989.769,159746.174,152334.693,143350.141,108759.431,126754.597,29559.556
2.16,09-22-2026 23:25:54:373,-202201.391,-124771.148,159447.465,152199.51,143190.774,108290.223,126348.242,31087.611
2.164,09-22-2026 23:25:54:377,-189637.028,-112033.872,158562.828,152509.305,142733.457,107175.855,125318.81,36011.343
2.168,09-22-2026 23:25:54:381,-178232.453,-99893.656,158321.563,152858.529,142587.947,106941.251,125088.543,37539.397
2.172,09-22-2026 23:25:54:385,-184031.389,-105267.195,158999.402,152723.345,142948.257,107850.341,125914.797,33549.477
2.176,09-22-2026 23:25:54:389,-199108.624,-120989.769,159746.174,152351.591,143364,108759.431,126768.142,28965.313
2.18,09-22-2026 23:25:54:393,-202201.391,-124771.148,159412.999,152193.877,143239.277,108290.223,126348.242,30408.475
2.184,09-22-2026 23:25:54:397,-189830.326,-112232.892,158585.806,152498.04,142816.605,107205.18,125345.901,35417.099
2.188,09-22-2026 23:25:54:401,-178425.751,-99893.656,158344.541,152858.529,142684.954,106970.576,125115.633,37114.938
2.192,09-22-2026 23:25:54:405,-184417.985,-105665.234,159045.358,152734.611,143066.051,107894.329,125955.433,33040.125
2.196,09-22-2026 23:25:54:409,-199301.922,-121188.789,159780.641,152345.959,143467.935,108803.419,126808.778,28540.853
2.2,09-22-2026 23:25:54:413,-202587.986,-125169.188,159458.954,152193.877,143329.354,108348.874,126415.968,29814.232
2.204,09-22-2026 23:25:54:417,-190306.463,-112697.317,158599.396,152500.856,142858.984,107253.415,125421.941,34779.672
2.208,09-22-2026 23:25:54:421,-178848.064,-100371.939,158364.702,152849.901,142693.76,107031.462,125185.594,36414.926
2.212,09-22-2026 23:25:54:425,-184768.237,-105938.239,159046.43,152713.555,143069.269,107934.071,126005.858,32408.554
2.216,09-22-2026 23:25:54:429,-199473.181,-121444.359,159761.686,152342.695,143489.84,108851.476,126853.928,27911.607
2.22,09-22-2026 23:25:54:433,-202910.701,-125420.287,159459.938,152200.896,143354.657,108392.773,126464.65,29219.81
2.224,09-22-2026 23:25:54:437,-190306.463,-112896.113,158610.571,152495.402,142904.045,107297.806,125463.65,34207.333
2.228,09-22-2026 23:25:54:441,-178848.064,-100570.735,158364.702,152860.809,142768.862,107061.056,125227.302,35924.35
2.232,09-22-2026 23:25:54:445,-184386.29,-105739.442,159035.255,152708.102,143144.371,107948.867,126047.567,31917.978
2.236,09-22-2026 23:25:54:449,-199473.181,-121245.563,159761.686,152331.788,143549.921,108851.476,126881.734,27257.505
2.24,09-22-2026 23:25:54:453,-202719.727,-125221.491,159459.938,152195.442,143422.248,108407.57,126492.456,28647.471
2.244,09-22-2026 23:25:54:457,-190306.463,-112697.317,158621.747,152517.218,142986.657,107312.603,125491.455,33634.994
2.248,09-22-2026 23:25:54:461,-178657.091,-100173.143,158364.702,152871.716,142828.943,107046.259,125227.302,35352.011
2.252,09-22-2026 23:25:54:465,-184386.29,-105540.646,159046.43,152740.825,143196.943,107963.664,126061.469,31345.639
2.256,09-22-2026 23:25:54:469,-199282.208,-121046.766,159772.862,152359.057,143564.942,108881.069,126895.637,26766.929
2.26,09-22-2026 23:25:54:473,-202719.727,-125221.491,159482.289,152228.165,143429.758,108437.164,126520.261,28156.895
2.264,09-22-2026 23:25:54:477,-190306.463,-112697.317,158621.747,152528.125,142979.147,107327.4,125505.358,33144.418
2.268,09-22-2026 23:25:54:481,-178848.064,-100173.143,158364.702,152888.078,142813.923,107075.853,125255.108,34861.435
2.272,09-22-2026 23:25:54:485,-184195.317,-105540.646,159024.079,152740.825,143174.412,107963.664,126075.372,30936.826
2.276,09-22-2026 23:25:54:489,-199282.208,-121046.766,159784.038,152364.511,143579.962,108895.866,126937.345,26358.116
2.28,09-22-2026 23:25:54:493,-202719.727,-125221.491,159493.465,152200.896,143452.289,108451.96,126548.067,27748.081
2.284,09-22-2026 23:25:54:497,-190688.409,-113094.91,158632.923,152511.764,143016.698,107371.79,125560.969,32735.605
2.288,09-22-2026 23:25:54:501,-178848.064,-100371.939,158364.702,152877.17,142866.494,107105.447,125296.816,34616.147
2.292,09-22-2026 23:25:54:505,-184577.264,-105739.442,159046.43,152751.732,143234.494,108008.055,126117.081,30609.775
2.296,09-22-2026 23:25:54:509,-199282.208,-121046.766,159772.862,152369.964,143647.554,108910.663,126951.248,26031.065
2.3,09-22-2026 23:25:54:513,-202910.701,-125420.287,159493.465,152228.165,143519.881,108481.554,126589.775,27339.268
2.304,09-22-2026 23:25:54:517,-190739.774,-112971.751,158651.073,152538.675,143056.216,107394.008,125601.515,32333.05
2.308,09-22-2026 23:25:54:521,-179120.398,-100568.679,158380.706,152901.087,142857.062,107117.114,125332.4,34087.215
2.312,09-22-2026 23:25:54:525,-184644.363,-105687.407,159022.827,152771.268,143218.49,108006.088,126126.29,30228.052
2.316,09-22-2026 23:25:54:529,-199501.926,-121043.592,159766.335,152398.038,143638.926,108924.208,126974.002,25491.807
2.32,09-22-2026 23:25:54:533,-202930.594,-125374.824,159473.438,152235.765,143520.909,108472.435,126583.785,26807.431
2.324,09-22-2026 23:25:54:537,-190930.255,-113168.626,158628.542,152533.266,143078.344,107364.861,125601.515,31719.092
2.328,09-22-2026 23:25:54:541,-178929.916,-100371.805,158358.176,152906.496,142930.823,107102.541,125332.4,33648.674
2.332,09-22-2026 23:25:54:545,-184453.882,-105490.533,159034.092,152776.677,143284.874,107991.515,126153.201,29614.094
2.336,09-22-2026 23:25:54:549,-199120.963,-120846.718,159777.601,152392.629,143690.559,108909.635,127000.913,24965.557
2.34,09-22-2026 23:25:54:553,-202930.594,-125177.95,159484.703,152235.765,143565.165,108472.435,126610.697,26281.181
2.344,09-22-2026 23:25:54:557,-190549.292,-112774.877,158617.277,152522.448,143115.225,107379.434,125614.971,31280.551
2.348,09-22-2026 23:25:54:561,-178929.916,-100371.805,158346.91,152874.041,142938.199,107102.541,125332.4,33034.716
2.352,09-22-2026 23:25:54:565,-184263.4,-105293.659,159011.562,152738.813,143299.627,107991.515,126153.201,29087.845
2.356,09-22-2026 23:25:54:569,-199120.963,-120846.718,159766.335,152365.583,143675.806,108924.208,127000.913,24351.6
2.36,09-22-2026 23:25:54:573,-202740.112,-125177.95,159473.438,152219.537,143528.285,108487.008,126637.608,25579.515
2.364,09-22-2026 23:25:54:577,-190739.774,-112971.751,158639.808,152517.039,143093.096,107408.581,125641.882,30578.885
2.368,09-22-2026 23:25:54:581,-178929.916,-100371.805,158358.176,152901.087,142945.575,107131.688,125372.767,32420.758
2.372,09-22-2026 23:25:54:585,-184072.919,-105293.659,159000.296,152765.859,143321.755,108006.088,126166.657,28386.179
2.376,09-22-2026 23:25:54:589,-199120.963,-120846.718,159732.54,152370.993,143734.815,108924.208,127027.825,23562.226
2.38,09-22-2026 23:25:54:593,-202930.594,-125374.824,159462.173,152219.537,143616.798,108516.155,126664.52,24614.724
2.384,09-22-2026 23:25:54:597,-191120.737,-113365.5,158628.542,152527.857,143181.609,107437.728,125682.25,29526.386
2.388,09-22-2026 23:25:54:601,-178929.916,-100371.805,158346.91,152895.677,143011.96,107146.261,125386.223,31455.968
2.392,09-22-2026 23:25:54:605,-184453.882,-105490.533,159011.562,152782.086,143380.763,108035.235,126193.568,27509.097
2.396,09-22-2026 23:25:54:609,-199120.963,-120846.718,159755.07,152392.629,143793.824,108953.355,127041.281,22948.268
2.4,09-22-2026 23:25:54:613,-203121.075,-125374.824,159495.969,152235.765,143675.806,108530.728,126691.431,24088.475
2.404,09-22-2026 23:25:54:617,-191166.2,-113309.442,158648.838,152528.394,143202.173,107444.076,125694.007,29024.5
2.408,09-22-2026 23:25:54:621,-179199.657,-100606.498,158345.882,152900.774,143014.418,107157.079,125411.436,30937.362
2.412,09-22-2026 23:25:54:625,-184328.176,-105370.102,159019.117,152794.379,143389.928,108061.118,126218.781,27024.69
2.416,09-22-2026 23:25:54:629,-199333.841,-120851.814,159770.895,152437.958,143820.199,108979.506,127093.405,22242.534
2.42,09-22-2026 23:25:54:633,-203132.743,-125416.935,159490.381,152267.728,143702.852,108549.012,126716.644,23459.81
2.424,09-22-2026 23:25:54:637,-191166.2,-113309.442,158637.617,152549.672,143256.935,107458.425,125720.918,28415.862
2.428,09-22-2026 23:25:54:641,-179009.712,-100408.015,158345.882,152911.413,143092.649,107157.079,125411.436,30502.621
2.432,09-22-2026 23:25:54:645,-184328.176,-105370.102,159007.896,152783.74,143468.159,108046.768,126218.781,26416.052
2.436,09-22-2026 23:25:54:649,-198953.95,-120653.331,159737.233,152406.04,143890.607,108965.157,127066.493,21546.948
2.44,09-22-2026 23:25:54:653,-203132.743,-125416.935,159479.16,152241.129,143773.26,108563.362,126716.644,22590.327
2.444,09-22-2026 23:25:54:657,-190976.255,-113309.442,158648.838,152533.713,143335.166,107458.425,125734.374,27546.379
2.448,09-22-2026 23:25:54:661,-179009.712,-100408.015,158357.103,152900.774,143163.057,107157.079,125438.348,29633.138
2.452,09-22-2026 23:25:54:665,-184138.231,-105171.618,159019.117,152794.379,143522.92,108046.768,126245.693,25720.465
2.456,09-22-2026 23:25:54:669,-199143.895,-120851.814,159770.895,152421.999,143898.43,108979.506,127120.316,20851.361
2.46,09-22-2026 23:25:54:673,-203132.743,-125615.418,159490.381,152241.129,143765.437,108563.362,126743.555,21981.689
2.464,09-22-2026 23:25:54:677,-191356.145,-113507.925,158637.617,152523.074,143311.696,107472.775,125747.83,26937.741
2.468,09-22-2026 23:25:54:681,-179009.712,-100408.015,158345.882,152900.774,143139.588,107157.079,125438.348,29024.5
2.472,09-22-2026 23:25:54:685,-184138.231,-105370.102,159019.117,152789.06,143522.92,108046.768,126245.693,25198.776
2.476,09-22-2026 23:25:54:689,-198953.95,-120653.331,159770.895,152406.04,143945.368,108979.506,127106.861,20503.568
2.48,09-22-2026 23:25:54:693,-203132.743,-125615.418,159501.601,152241.129,143843.668,108577.711,126770.467,21546.948
2.484,09-22-2026 23:25:54:697,-191166.2,-113706.409,158637.617,152528.394,143397.751,107487.125,125774.741,26503
2.488,09-22-2026 23:25:54:701,-179009.712,-100606.498,158357.103,152916.733,143225.642,107171.429,125465.259,28502.81
2.492,09-22-2026 23:25:54:705,-184138.231,-105370.102,159019.117,152799.699,143585.505,108046.768,126259.148,24677.086
2.496,09-22-2026 23:25:54:709,-198953.95,-120851.814,159748.454,152411.36,144007.953,108979.506,127120.316,19894.93
2.5,09-22-2026 23:25:54:713,-202942.798,-125615.418,159490.381,152241.129,143890.607,108577.711,126783.923,20851.361
2.504,09-22-2026 23:25:54:717,-191329.904,-113718.121,158673.156,152557.943,143396.275,107484.309,125796.02,25785.732
2.508,09-22-2026 23:25:54:721,-178861.431,-100526.747,158356.477,152923.796,143181.43,107160.745,125466.645,27855.325
2.512,09-22-2026 23:25:54:725,-184040.643,-105323.61,159012.456,152801.845,143555.42,108043.192,126262.635,23974.839
2.516,09-22-2026 23:25:54:729,-198810.989,-120713.546,159747.605,152413.819,143985.11,108969.761,127127.245,19145.789
2.52,09-22-2026 23:25:54:733,-203222.91,-125710.279,159498.785,152241.978,143889.623,108587.367,126811.594,20094.352
2.524,09-22-2026 23:25:54:737,-191329.904,-113917.99,158639.226,152546.856,143444.019,107499.016,125809.744,25009.635
2.528,09-22-2026 23:25:54:741,-178861.431,-100526.747,158322.547,152929.339,143268.96,107160.745,125466.645,27251.694
2.532,09-22-2026 23:25:54:745,-183848.82,-105123.741,158989.836,152824.018,143642.949,108043.192,126276.359,23284.974
2.536,09-22-2026 23:25:54:749,-198619.166,-120513.677,159747.605,152447.078,144072.639,108984.468,127140.969,18542.158
2.54,09-22-2026 23:25:54:753,-203031.087,-125510.41,159498.785,152269.694,143961.238,108602.075,126825.318,19490.721
2.544,09-22-2026 23:25:54:757,-191138.082,-113518.252,158639.226,152552.399,143507.677,107499.016,125823.468,24492.237
2.548,09-22-2026 23:25:54:761,-178861.431,-100526.747,158333.857,152929.339,143332.618,107190.16,125507.817,26648.063
2.552,09-22-2026 23:25:54:765,-183848.82,-105323.61,159001.146,152824.018,143690.693,108087.314,126317.531,22767.576
2.556,09-22-2026 23:25:54:769,-199002.811,-120713.546,159758.915,152441.535,144064.682,109028.591,127195.865,17852.294
2.56,09-22-2026 23:25:54:773,-203222.91,-125910.148,159510.095,152253.065,143953.281,108631.49,126852.766,18887.09
2.564,09-22-2026 23:25:54:777,-191521.727,-114117.859,158650.536,152541.313,143523.591,107543.139,125864.64,23802.373
2.568,09-22-2026 23:25:54:781,-179053.253,-100726.616,158333.857,152901.623,143332.618,107190.16,125521.541,25958.198
2.572,09-22-2026 23:25:54:785,-184040.643,-105323.61,159001.146,152801.845,143706.607,108072.607,126317.531,22077.712
2.576,09-22-2026 23:25:54:789,-198810.989,-120713.546,159747.605,152413.819,144120.383,109013.883,127182.141,17334.895
2.58,09-22-2026 23:25:54:793,-203222.91,-125910.148,159510.095,152225.349,144032.853,108646.197,126866.49,18369.692
2.584,09-22-2026 23:25:54:797,-191521.727,-114117.859,158673.156,152535.77,143595.206,107543.139,125878.364,23371.208
2.588,09-22-2026 23:25:54:801,-179053.253,-100926.486,158345.167,152929.339,143404.233,107204.867,125535.265,25613.266
2.592,09-22-2026 23:25:54:805,-183848.82,-105323.61,159012.456,152812.931,143762.308,108087.314,126331.255,21732.78
2.596,09-22-2026 23:25:54:809,-198810.989,-120713.546,159758.915,152419.362,144191.998,109028.591,127209.589,16903.73
2.6,09-22-2026 23:25:54:813,-203222.91,-125910.148,159521.405,152236.435,144096.511,108646.197,126893.938,17852.294
2.604,09-22-2026 23:25:54:817,-191572.108,-114300.786,158675.973,152533.803,143608.662,107576.353,125903.8,22777.59
2.608,09-22-2026 23:25:54:821,-178996.122,-100906.548,158336.673,152917.359,143391.09,107215.373,125559.762,24988.803
2.612,09-22-2026 23:25:54:825,-183833.04,-105304.656,158992.652,152812.752,143763.068,108081.726,126353.696,21139.654
2.616,09-22-2026 23:25:54:829,-198537.269,-120498.12,159727.801,152423.385,144191.193,109020.276,127213.791,16389.64
2.62,09-22-2026 23:25:54:833,-203180.71,-125895.798,159501.601,152249.041,144106.972,108659.295,126896.218,17208.608
2.624,09-22-2026 23:25:54:837,-191378.631,-114100.872,158653.353,152533.803,143657.791,107576.353,125903.8,22204.312
2.628,09-22-2026 23:25:54:841,-178802.646,-100906.548,158302.743,152911.547,143468.293,107215.373,125559.762,24497.423
2.632,09-22-2026 23:25:54:845,-183446.086,-105104.742,158958.722,152806.941,143840.271,108081.726,126353.696,20730.17
2.636,09-22-2026 23:25:54:849,-198343.792,-120498.12,159727.801,152417.574,144268.396,109049.154,127240.256,15980.156
2.64,09-22-2026 23:25:54:853,-202793.756,-125895.798,159490.291,152219.984,144163.119,108673.735,126922.682,17044.814
2.644,09-22-2026 23:25:54:857,-191378.631,-114300.786,158642.043,152504.745,143699.902,107590.792,125930.265,22040.519
2.648,09-22-2026 23:25:54:861,-178802.646,-100906.548,158302.743,152888.301,143510.403,107229.812,125586.227,24251.732
2.652,09-22-2026 23:25:54:865,-183639.563,-105504.57,158970.032,152789.507,143847.289,108110.605,126380.161,20402.583
2.656,09-22-2026 23:25:54:869,-198343.792,-120698.034,159727.801,152405.951,144212.248,109049.154,127240.256,15652.569
2.66,09-22-2026 23:25:54:873,-203180.71,-126295.626,159490.291,152219.984,144106.972,108688.174,126935.914,16471.537
2.664,09-22-2026 23:25:54:877,-191378.631,-114500.7,158630.733,152498.934,143664.809,107590.792,125943.497,21467.241
2.668,09-22-2026 23:25:54:881,-178996.122,-101106.462,158314.053,152870.867,143468.293,107229.812,125586.227,23760.351
2.672,09-22-2026 23:25:54:885,-183639.563,-105304.656,158947.412,152754.638,143833.252,108096.165,126353.696,19993.099
2.676,09-22-2026 23:25:54:889,-198537.269,-120698.034,159705.181,152382.705,144261.377,109049.154,127240.256,15079.291
2.68,09-22-2026 23:25:54:893,-203180.71,-126295.626,159490.291,152208.361,144170.138,108688.174,126935.914,15980.156
2.684,09-22-2026 23:25:54:897,-191572.108,-114500.7,158630.733,152475.688,143699.902,107590.792,125917.032,20893.964
2.688,09-22-2026 23:25:54:901,-179189.599,-101306.376,158291.433,152841.81,143496.367,107229.812,125559.762,23187.074
2.692,09-22-2026 23:25:54:905,-183833.04,-105504.57,158936.102,152743.015,143847.289,108081.726,126327.232,19419.821
2.696,09-22-2026 23:25:54:909,-198730.746,-120897.948,159705.181,152365.271,144282.433,109049.154,127213.791,14587.911
2.7,09-22-2026 23:25:54:913,-203374.187,-126295.626,159490.291,152179.304,144184.174,108702.613,126922.682,15406.879
2.704,09-22-2026 23:25:54:917,-192222.097,-115186.765,158646.96,152467.91,143692.213,107619.269,125938.937,20226.719
2.708,09-22-2026 23:25:54:921,-179651.923,-101516.08,158286.471,152839.664,143467.98,107229.409,125568.435,22624.615
2.712,09-22-2026 23:25:54:925,-184293.218,-105874.849,158928.592,152732.644,143828.111,108095.763,126349.136,18867.912
2.716,09-22-2026 23:25:54:929,-198797.265,-120932.415,159694.631,152349.624,144269.782,109048.752,127222.464,14152.052
2.72,09-22-2026 23:25:54:933,-204018.721,-126678.065,159491.856,152175.012,144195.037,108716.65,126944.587,14951.35
2.724,09-22-2026 23:25:54:937,-192415.484,-115186.765,158635.695,152451.012,143732.982,107619.269,125938.937,19986.93
2.728,09-22-2026 23:25:54:941,-179845.31,-101714.206,158275.206,152822.766,143522.339,107243.849,125568.435,22544.685
2.732,09-22-2026 23:25:54:945,-184293.218,-105874.849,158894.796,152721.379,143875.676,108095.763,126349.136,18787.982
2.736,09-22-2026 23:25:54:949,-198990.652,-121130.541,159683.366,152360.89,144303.756,109063.191,127235.696,13992.192
2.74,09-22-2026 23:25:54:953,-203825.334,-126678.065,159480.591,152175.012,144215.422,108716.65,126944.587,14871.42
2.744,09-22-2026 23:25:54:957,-192608.871,-115186.765,158635.695,152445.379,143753.367,107619.269,125952.169,19907
2.748,09-22-2026 23:25:54:961,-179845.31,-101516.08,158263.941,152811.501,143529.134,107229.409,125555.202,22304.895
2.752,09-22-2026 23:25:54:965,-184486.605,-105676.723,158906.062,152738.276,143862.086,108110.202,126349.136,18388.333
2.756,09-22-2026 23:25:54:969,-198990.652,-120932.415,159694.631,152383.42,144262.987,109063.191,127235.696,13512.613
2.76,09-22-2026 23:25:54:973,-204212.109,-126678.065,159480.591,152186.278,144167.858,108731.089,126944.587,14231.982
2.764,09-22-2026 23:25:54:977,-192802.258,-115186.765,158635.695,152451.012,143719.392,107633.708,125938.937,19267.561
2.768,09-22-2026 23:25:54:981,-180038.697,-101516.08,158263.941,152834.031,143501.954,107229.409,125555.202,21745.386
2.772,09-22-2026 23:25:54:985,-184293.218,-105478.597,158906.062,152743.909,143855.291,108081.324,126322.672,18068.614
2.776,09-22-2026 23:25:54:989,-198990.652,-120734.289,159683.366,152383.42,144303.756,109063.191,127222.464,13192.894
2.78,09-22-2026 23:25:54:993,-204212.109,-126479.939,159480.591,152197.543,144222.217,108731.089,126957.819,13832.332
2.784,09-22-2026 23:25:54:997,-192995.646,-115384.89,158646.96,152484.808,143760.162,107648.147,125965.402,18628.123
2.788,09-22-2026 23:25:55:001,-180038.697,-101516.08,158286.471,152890.358,143542.724,107258.288,125568.435,21105.948
2.792,09-22-2026 23:25:55:005,-184486.605,-105478.597,158928.592,152800.235,143909.65,108124.642,126349.136,17349.245
2.796,09-22-2026 23:25:55:009,-198990.652,-120536.163,159683.366,152411.583,144330.936,109063.191,127235.696,12473.525
2.8,09-22-2026 23:25:55:013,-204212.109,-126479.939,159480.591,152220.074,144235.807,108745.528,126957.819,13033.034
2.804,09-22-2026 23:25:55:017,-193271.466,-115420.787,158644.636,152496.386,143751.623,107680.021,125975.683,17977.463
2.808,09-22-2026 23:25:55:021,-180353.454,-101627.079,158284.147,152877.26,143521.49,107265.172,125582.74,20459.401
2.812,09-22-2026 23:25:55:025,-184402.383,-105371.085,158915.002,152780.7,143884.125,108109.174,126342.431,16736.495
2.816,09-22-2026 23:25:55:029,-199248.457,-120544.165,159669.776,152405.191,144330.444,109081.922,127233.103,11772.619
2.82,09-22-2026 23:25:55:033,-204261.417,-126455.754,159467.001,152201.343,144260.707,108752.904,126971.141,12470.664
2.824,09-22-2026 23:25:55:037,-193271.466,-115420.787,158633.37,152480.293,143814.387,107694.326,125988.782,17201.858
2.828,09-22-2026 23:25:55:041,-180160.648,-101430.026,158261.616,152877.26,143591.227,107265.172,125582.74,19761.356
2.832,09-22-2026 23:25:55:045,-184402.383,-105371.085,158892.472,152791.429,143939.915,108109.174,126355.529,16038.45
2.836,09-22-2026 23:25:55:049,-198862.845,-120347.112,159647.245,152421.284,144358.339,109081.922,127233.103,11152.135
2.84,09-22-2026 23:25:55:053,-204261.417,-126455.754,159478.266,152222.801,144274.654,108767.21,126971.141,11850.18
2.844,09-22-2026 23:25:55:057,-193271.466,-115223.734,158633.37,152496.386,143814.387,107694.326,125988.782,16814.055
2.848,09-22-2026 23:25:55:061,-180160.648,-101430.026,158239.085,152861.166,143570.306,107265.172,125582.74,19373.553
2.852,09-22-2026 23:25:55:065,-184402.383,-105371.085,158869.941,152769.971,143870.177,108109.174,126355.529,15573.086
2.856,09-22-2026 23:25:55:069,-199055.651,-120347.112,159647.245,152410.555,144260.707,109081.922,127233.103,10764.332
2.86,09-22-2026 23:25:55:073,-204454.223,-126455.754,159478.266,152222.801,144177.022,108781.515,126984.239,11384.816
2.864,09-22-2026 23:25:55:077,-193271.466,-115420.787,158633.37,152501.75,143716.755,107694.326,126001.88,16348.692
2.868,09-22-2026 23:25:55:081,-180353.454,-101430.026,158239.085,152882.624,143472.674,107265.172,125582.74,18985.751
2.872,09-22-2026 23:25:55:085,-184402.383,-105174.032,158858.676,152780.7,143814.387,108109.174,126342.431,15417.965
2.876,09-22-2026 23:25:55:089,-199055.651,-120347.112,159647.245,152421.284,144246.759,109081.922,127246.201,10609.211
2.88,09-22-2026 23:25:55:093,-204454.223,-126455.754,159467.001,152233.529,144170.048,108795.82,127010.435,11229.695
2.884,09-22-2026 23:25:55:097,-193657.079,-115420.787,158644.636,152517.844,143709.781,107722.936,126014.978,16116.01
2.888,09-22-2026 23:25:55:101,-180353.454,-101430.026,158239.085,152882.624,143472.674,107279.477,125595.838,18908.19
2.892,09-22-2026 23:25:55:105,-184595.19,-105174.032,158881.206,152796.793,143821.361,108123.479,126368.627,15417.965
2.896,09-22-2026 23:25:55:109,-199055.651,-120150.059,159635.98,152415.92,144232.812,109081.922,127246.201,10609.211
2.9,09-22-2026 23:25:55:113,-204647.029,-126455.754,159467.001,152206.707,144142.153,108795.82,126997.337,11152.135
2.904,09-22-2026 23:25:55:117,-193798.565,-115514.844,158625.815,152492.72,143641.608,107722.176,126026.198,16108.455
2.908,09-22-2026 23:25:55:121,-180794.141,-101708.618,158251.915,152883.876,143400.656,107287.658,125607.774,19105.019
2.912,09-22-2026 23:25:55:125,-184618.972,-105258.79,158856.754,152788.881,143744.873,108113.242,126360.938,15714.17
2.916,09-22-2026 23:25:55:129,-199344.569,-120248.407,159626.548,152414.489,144178.587,109083.666,127253.577,10903.896
2.92,09-22-2026 23:25:55:133,-204699.332,-126559.824,159450.595,152207.735,144102.859,108793.987,127016.47,11613.609
2.924,09-22-2026 23:25:55:137,-193989.807,-115712.075,158636.812,152470.368,143662.261,107736.66,126040.146,17133.596
2.928,09-22-2026 23:25:55:141,-180794.141,-101708.618,158229.921,152861.524,143428.194,107287.658,125607.774,20918.729
2.932,09-22-2026 23:25:55:145,-184810.213,-105258.79,158856.754,152794.469,143793.064,108142.21,126374.886,17843.308
2.936,09-22-2026 23:25:55:149,-199153.328,-120248.407,159626.548,152425.665,144226.777,109098.149,127267.525,12638.749
2.94,09-22-2026 23:25:55:153,-204890.574,-126559.824,159461.592,152218.911,144164.818,108822.955,127044.365,13111.891
2.944,09-22-2026 23:25:55:157,-193989.807,-115712.075,158636.812,152492.72,143717.336,107751.144,126068.041,18158.736
2.948,09-22-2026 23:25:55:161,-180985.383,-101708.618,158240.918,152883.876,143476.384,107302.142,125663.564,20761.016
2.952,09-22-2026 23:25:55:165,-184810.213,-105258.79,158845.757,152800.057,143799.948,108156.694,126444.623,16660.454
2.956,09-22-2026 23:25:55:169,-199535.811,-120248.407,159615.551,152408.901,144206.124,109112.633,127351.21,11455.895
2.96,09-22-2026 23:25:55:173,-205081.815,-126559.824,159439.598,152190.972,144144.165,108822.955,127100.155,11850.18
2.964,09-22-2026 23:25:55:177,-194181.048,-115712.075,158625.815,152470.368,143717.336,107765.628,126137.778,16660.454
2.968,09-22-2026 23:25:55:181,-180985.383,-101708.618,158229.921,152872.7,143490.153,107316.626,125719.354,19262.733
2.972,09-22-2026 23:25:55:185,-185001.455,-105258.79,158867.751,152800.057,143848.138,108171.178,126486.466,15714.17
2.976,09-22-2026 23:25:55:189,-199344.569,-120248.407,159626.548,152420.077,144274.967,109127.117,127379.105,11219.324
2.98,09-22-2026 23:25:55:193,-205081.815,-126757.056,159472.589,152218.911,144206.124,108851.923,127141.997,12007.894
2.984,09-22-2026 23:25:55:197,-194372.29,-115909.307,158636.812,152503.896,143758.642,107780.112,126165.673,17212.453
2.988,09-22-2026 23:25:55:201,-181176.624,-101905.85,158229.921,152900.64,143510.806,107331.11,125733.301,19893.589
2.992,09-22-2026 23:25:55:205,-184810.213,-105258.79,158834.759,152800.057,143855.023,108156.694,126486.466,16345.026
2.996,09-22-2026 23:25:55:209,-199344.569,-120248.407,159604.554,152414.489,144274.967,109127.117,127379.105,11613.609
3,09-22-2026 23:25:55:213,-205081.815,-126757.056,159461.592,152224.499,144185.471,108851.923,127155.945,12323.321
3.004,09-22-2026 23:25:55:217,-194726.61,-116305.469,158650.894,152514.893,143696.459,107801.659,126200.408,17061.847
3.008,09-22-2026 23:25:55:221,-181272.245,-101995.659,158226.211,152899.79,143441.918,107329.59,125747.472,19862.073
3.012,09-22-2026 23:25:55:225,-185062.207,-105524.105,158852.06,152817.312,143794.36,108173.592,126506.806,16361.79
3.016,09-22-2026 23:25:55:229,-199464.062,-120421.99,159612.019,152454.409,144225.123,109132.035,127386.034,11531.399
3.02,09-22-2026 23:25:55:233,-205149.004,-126890.809,159455.557,152239.967,144159.856,108860.237,127172.888,12021.439
3.024,09-22-2026 23:25:55:237,-194726.61,-116305.469,158650.894,152498.398,143722.566,107801.659,126200.408,16921.835
3.028,09-22-2026 23:25:55:241,-181272.245,-101995.659,158226.211,152894.292,143468.025,107329.59,125747.472,19932.079
3.032,09-22-2026 23:25:55:245,-184872.709,-105328.081,158840.884,152822.811,143813.94,108159.287,126506.806,16431.796
3.036,09-22-2026 23:25:55:249,-199274.564,-120225.965,159612.019,152443.412,144238.176,109132.035,127399.355,11741.416
3.04,09-22-2026 23:25:55:253,-205338.503,-126890.809,159455.557,152223.471,144172.909,108874.543,127186.209,12301.461
3.044,09-22-2026 23:25:55:257,-194537.111,-116109.445,158639.718,152481.902,143722.566,107801.659,126213.73,17061.847
3.048,09-22-2026 23:25:55:261,-181272.245,-101995.659,158215.035,152877.796,143468.025,107329.59,125760.794,19582.05
3.052,09-22-2026 23:25:55:265,-185062.207,-105328.081,158829.708,152817.312,143781.307,108173.592,126520.127,16081.767
3.056,09-22-2026 23:25:55:269,-199464.062,-120421.99,159600.843,152437.914,144192.489,109146.34,127412.677,11321.382
3.06,09-22-2026 23:25:55:273,-205338.503,-126890.809,159444.381,152206.975,144133.749,108874.543,127199.531,12021.439
3.064,09-22-2026 23:25:55:277,-194916.108,-116305.469,158639.718,152481.902,143696.459,107815.964,126227.051,16991.841
3.068,09-22-2026 23:25:55:281,-181272.245,-101995.659,158215.035,152877.796,143461.498,107329.59,125774.115,19792.067
3.072,09-22-2026 23:25:55:285,-184872.709,-105132.056,158818.532,152817.312,143820.467,108173.592,126533.449,16361.79
3.076,09-22-2026 23:25:55:289,-199274.564,-120029.941,159578.491,152432.415,144251.23,109146.34,127425.999,11741.416
3.08,09-22-2026 23:25:55:293,-205338.503,-126890.809,159433.205,152201.477,144185.963,108874.543,127212.853,12371.467
3.084,09-22-2026 23:25:55:297,-194537.111,-116109.445,158606.191,152465.406,143742.146,107801.659,126240.373,17341.869
3.088,09-22-2026 23:25:55:301,-181272.245,-101995.659,158192.683,152872.298,143494.131,107329.59,125774.115,20212.101
3.092,09-22-2026 23:25:55:305,-184683.211,-104936.031,158796.18,152811.814,143833.52,108159.287,126533.449,16711.818
3.096,09-22-2026 23:25:55:309,-199085.066,-119833.916,159589.667,152454.409,144270.81,109146.34,127439.32,11811.422
3.1,09-22-2026 23:25:55:313,-205149.004,-126694.784,159466.733,152239.967,144199.016,108917.458,127252.817,12091.444
3.104,09-22-2026 23:25:55:317,-194760.763,-116313.158,158635.963,152495.402,143708.798,107844.887,126282.171,16624.065
3.108,09-22-2026 23:25:55:321,-181198.484,-101892.394,158200.104,152874.801,143452.512,107360.033,125810.638,19172.164
3.112,09-22-2026 23:25:55:325,-184827.827,-105053.11,158825.953,152814.317,143800.797,108201.397,126557.231,15434.952
3.116,09-22-2026 23:25:55:329,-198963.159,-119868.963,159585.912,152445.916,144234.511,109156.845,127447.903,10593.565
3.12,09-22-2026 23:25:55:333,-205266.753,-126783.028,159451.802,152214.977,144175.368,108914.418,127251.432,10933.311
3.124,09-22-2026 23:25:55:337,-194760.763,-116313.158,158624.787,152478.907,143728.512,107844.887,126269.072,15265.079
3.128,09-22-2026 23:25:55:341,-181198.484,-101892.394,158188.928,152891.296,143485.37,107360.033,125810.638,17898.115
3.132,09-22-2026 23:25:55:345,-184636.809,-104855.565,158803.601,152830.813,143833.654,108187.137,126557.231,14330.776
3.136,09-22-2026 23:25:55:349,-198963.159,-119868.963,159585.912,152456.913,144287.082,109171.106,127474.1,9404.452
3.14,09-22-2026 23:25:55:353,-205266.753,-126783.028,159440.626,152225.974,144234.511,108928.679,127277.628,9659.262
3.144,09-22-2026 23:25:55:357,-194951.781,-116510.703,158624.787,152467.91,143781.083,107873.408,126308.367,14245.84
3.148,09-22-2026 23:25:55:361,-181389.502,-102089.939,158177.752,152852.807,143511.655,107374.293,125836.834,17048.748
3.152,09-22-2026 23:25:55:365,-185018.845,-105250.654,158781.249,152770.329,143800.797,108187.137,126570.329,13481.41
3.156,09-22-2026 23:25:55:369,-199154.177,-120066.508,159552.385,152401.927,144221.368,109156.845,127461.002,8640.022
3.16,09-22-2026 23:25:55:373,-205457.771,-126980.573,159429.45,152192.983,144175.368,108928.679,127264.53,8809.895
3.164,09-22-2026 23:25:55:377,-195142.799,-116708.248,158613.611,152451.414,143741.655,107859.148,126295.269,13651.283
3.168,09-22-2026 23:25:55:381,-181389.502,-102089.939,158177.752,152847.308,143491.941,107360.033,125810.638,16709.002
3.172,09-22-2026 23:25:55:385,-184636.809,-104855.565,158792.425,152819.816,143846.797,108187.137,126557.231,13311.537
3.176,09-22-2026 23:25:55:389,-198963.159,-119671.419,159563.56,152434.919,144280.51,109171.106,127461.002,8385.212
3.18,09-22-2026 23:25:55:393,-205457.771,-126783.028,159440.626,152192.983,144234.511,108942.939,127277.628,8470.149
3.184,09-22-2026 23:25:55:397,-194951.781,-116510.703,158613.611,152440.417,143787.654,107887.668,126308.367,13396.473
3.188,09-22-2026 23:25:55:401,-181389.502,-102089.939,158166.576,152841.81,143524.798,107374.293,125823.736,16624.065
3.192,09-22-2026 23:25:55:405,-184445.791,-104658.02,158747.722,152792.323,143853.369,108172.877,126544.133,13481.41
3.196,09-22-2026 23:25:55:409,-198772.141,-119473.874,159541.209,152429.42,144287.082,109171.106,127461.002,8809.895
3.2,09-22-2026 23:25:55:413,-205266.753,-126783.028,159429.45,152203.98,144208.225,108957.199,127290.726,9149.642
3.204,09-22-2026 23:25:55:417,-195013.606,-116659.7,158602.301,152457.27,143737.184,107898.665,126330.853,14186.429
3.208,09-22-2026 23:25:55:421,-181273.184,-102044.699,158160.631,152858.663,143475.669,107378.853,125829.727,17163.413
3.212,09-22-2026 23:25:55:425,-184517.45,-104809.699,158756.886,152803.678,143817.651,108187.45,126568.228,13374.524
3.216,09-22-2026 23:25:55:429,-198639.551,-119424.7,159540.851,152440.775,144260.215,109169.317,127464.98,8322.672
3.22,09-22-2026 23:25:55:433,-205318.922,-126732.201,159441.475,152215.335,144233.393,108967.168,127293.542,8322.672
3.224,09-22-2026 23:25:55:437,-194822.767,-116462.2,158624.385,152473.766,143797.534,107913.105,126330.853,12923.466
3.228,09-22-2026 23:25:55:441,-181273.184,-102044.699,158160.631,152880.657,143529.313,107393.292,125829.727,15900.45
3.232,09-22-2026 23:25:55:445,-184326.611,-104612.199,158756.886,152836.669,143864.589,108201.889,126568.228,12382.196
3.236,09-22-2026 23:25:55:449,-198639.551,-119424.7,159540.851,152462.769,144307.154,109183.757,127478.168,7240.132
3.24,09-22-2026 23:25:55:453,-205128.083,-126732.201,159408.35,152220.834,144266.921,108967.168,127306.73,7420.556
3.244,09-22-2026 23:25:55:457,-195013.606,-116659.7,158635.427,152484.763,143824.356,107941.983,126357.228,12111.561
3.248,09-22-2026 23:25:55:461,-181273.184,-102044.699,158193.756,152891.654,143542.724,107407.732,125869.289,15088.545
3.252,09-22-2026 23:25:55:465,-184517.45,-104809.699,158801.053,152853.164,143837.767,108230.768,126594.603,11480.079
3.256,09-22-2026 23:25:55:469,-198639.551,-119424.7,159562.935,152479.264,144260.215,109212.635,127491.355,6428.228
3.26,09-22-2026 23:25:55:473,-205509.762,-126929.701,159463.559,152248.326,144233.393,108996.047,127333.105,6428.228
3.264,09-22-2026 23:25:55:477,-195204.445,-116659.7,158657.51,152501.259,143790.828,107941.983,126357.228,11299.656
3.268,09-22-2026 23:25:55:481,-181464.023,-102242.199,158204.798,152913.648,143536.019,107422.171,125869.289,14366.852
3.272,09-22-2026 23:25:55:485,-184517.45,-104809.699,158778.969,152875.159,143878,108230.768,126594.603,10938.81
3.276,09-22-2026 23:25:55:489,-198830.39,-119424.7,159562.935,152512.256,144313.859,109212.635,127504.543,5886.958
3.28,09-22-2026 23:25:55:493,-205318.922,-126929.701,159452.517,152264.822,144280.332,109010.486,127333.105,6067.381
3.284,09-22-2026 23:25:55:497,-195395.284,-117054.7,158657.51,152523.253,143851.178,107970.862,126396.79,10758.386
3.288,09-22-2026 23:25:55:501,-181464.023,-102242.199,158171.673,152908.15,143569.546,107407.732,125856.102,14006.005
3.292,09-22-2026 23:25:55:505,-184517.45,-104809.699,158767.928,152864.161,143891.411,108216.328,126581.416,10577.963
3.296,09-22-2026 23:25:55:509,-198639.551,-119424.7,159551.893,152484.763,144327.27,109212.635,127491.355,5706.534
3.3,09-22-2026 23:25:55:513,-205509.762,-127127.201,159452.517,152231.831,144260.215,109024.925,127346.292,5886.958
3.304,09-22-2026 23:25:55:517,-195486.792,-117154.255,158652.012,152488.652,143795.612,107979.042,126389.817,10808.544
3.308,09-22-2026 23:25:55:521,-181708.909,-102694.732,158190.135,152870.42,143524.574,107424.63,125858.292,14002.519
3.312,09-22-2026 23:25:55:525,-184539.981,-105039.52,158775.93,152810.428,143871.25,108234.925,126584.277,10644.75
3.316,09-22-2026 23:25:55:529,-198695.341,-119694.441,159553.234,152461.383,144318.777,109230.025,127504.722,5730.943
3.32,09-22-2026 23:25:55:533,-205301.175,-127119.601,159451.846,152215.961,144287.261,109031.005,127349.153,5894.736
3.324,09-22-2026 23:25:55:537,-195298.054,-117154.255,158652.012,152466.837,143846.037,107993.258,126389.817,10644.75
3.328,09-22-2026 23:25:55:541,-181331.433,-102303.934,158156.339,152864.966,143562.394,107424.63,125858.292,13838.725
3.332,09-22-2026 23:25:55:545,-184351.243,-104844.121,158742.134,152815.882,143877.553,108234.925,126584.277,10317.163
3.336,09-22-2026 23:25:55:549,-198506.602,-119499.042,159541.969,152455.929,144325.08,109230.025,127504.722,5321.459
3.34,09-22-2026 23:25:55:553,-205112.437,-126924.202,159451.846,152205.053,144293.564,109031.005,127349.153,5403.355
3.344,09-22-2026 23:25:55:557,-195298.054,-116958.856,158640.746,152455.929,143858.644,107993.258,126402.781,10153.369
3.348,09-22-2026 23:25:55:561,-181331.433,-102303.934,158167.605,152854.058,143562.394,107438.845,125871.256,13429.241
3.352,09-22-2026 23:25:55:565,-184351.243,-104844.121,158730.869,152783.159,143827.128,108220.709,126584.277,9825.782
3.356,09-22-2026 23:25:55:569,-198506.602,-119303.643,159519.438,152417.752,144255.745,109201.593,127491.758,4666.284
3.36,09-22-2026 23:25:55:573,-205301.175,-126924.202,159440.581,152177.784,144236.835,109031.005,127349.153,4502.491
3.364,09-22-2026 23:25:55:577,-195298.054,-116958.856,158618.216,152417.752,143795.612,107964.827,126389.817,9252.505
3.368,09-22-2026 23:25:55:581,-181520.171,-102303.934,158133.809,152821.336,143524.574,107424.63,125871.256,12364.583
3.372,09-22-2026 23:25:55:585,-184162.505,-104648.722,158708.338,152788.613,143852.34,108220.709,126584.277,8924.917
3.376,09-22-2026 23:25:55:589,-198317.864,-119303.643,159508.173,152428.66,144293.564,109215.809,127491.758,3765.42
3.38,09-22-2026 23:25:55:593,-205301.175,-126924.202,159429.316,152194.146,144262.048,109031.005,127349.153,3765.42
3.384,09-22-2026 23:25:55:597,-195298.054,-117154.255,158618.216,152445.022,143820.824,107993.258,126402.781,8515.433
3.388,09-22-2026 23:25:55:601,-181331.433,-102303.934,158122.543,152832.243,143524.574,107424.63,125858.292,11791.305
3.392,09-22-2026 23:25:55:605,-184162.505,-104844.121,158708.338,152799.52,143846.037,108220.709,126571.313,8515.433
3.396,09-22-2026 23:25:55:609,-198129.126,-119108.244,159496.908,152439.568,144268.351,109215.809,127478.794,3601.626
3.4,09-22-2026 23:25:55:613,-205301.175,-127119.601,159429.316,152177.784,144217.926,109045.22,127349.153,3601.626
3.404,09-22-2026 23:25:55:617,-195422.375,-117432.713,158627.156,152417.529,143743.577,107991.112,126383.156,8406.312
3.408,09-22-2026 23:25:55:621,-181346.587,-102500.853,158120.8,152816.508,143473.21,107418.908,125846.133,11704.893
3.412,09-22-2026 23:25:55:625,-184009.574,-104662.043,158691.798,152784.589,143801.513,108191.384,126553.431,8481.28
3.416,09-22-2026 23:25:55:629,-198085.361,-119200.959,159478.266,152422.849,144252.124,109192.742,127470.3,3458.441
3.42,09-22-2026 23:25:55:633,-205123.255,-127059.832,159402.851,152162.183,144232.812,109035.386,127339.319,3383.473
3.424,09-22-2026 23:25:55:637,-195422.375,-117432.713,158605.609,152401.57,143795.075,107991.112,126383.156,8106.441
3.428,09-22-2026 23:25:55:641,-181346.587,-102500.853,158110.026,152800.548,143518.271,107418.908,125846.133,11330.055
3.432,09-22-2026 23:25:55:645,-184009.574,-104662.043,158681.024,152773.95,143840.136,108205.689,126553.431,7881.538
3.436,09-22-2026 23:25:55:649,-197895.148,-119004.487,159467.493,152417.529,144290.748,109207.047,127483.398,2858.699
3.44,09-22-2026 23:25:55:653,-205123.255,-127059.832,159402.851,152172.822,144277.873,109049.691,127365.515,2783.731
3.444,09-22-2026 23:25:55:657,-195422.375,-117432.713,158594.836,152412.209,143827.262,108005.417,126409.352,7656.635
3.448,09-22-2026 23:25:55:661,-181346.587,-102697.325,158120.8,152811.188,143524.709,107447.518,125885.427,11030.184
3.452,09-22-2026 23:25:55:665,-184009.574,-104858.515,158691.798,152784.589,143814.387,108248.604,126592.726,7881.538
3.456,09-22-2026 23:25:55:669,-198085.361,-119397.431,159478.266,152417.529,144245.686,109235.657,127509.594,3008.634
3.46,09-22-2026 23:25:55:673,-205313.469,-127256.304,159402.851,152162.183,144226.375,109063.996,127378.613,3158.57
3.464,09-22-2026 23:25:55:677,-195612.588,-117629.184,158627.156,152422.849,143795.075,108034.028,126435.548,7956.506
3.468,09-22-2026 23:25:55:681,-181346.587,-102697.325,158120.8,152821.827,143518.271,107461.823,125885.427,11255.087
3.472,09-22-2026 23:25:55:685,-184009.574,-104858.515,158681.024,152773.95,143840.136,108248.604,126605.824,7806.57
3.476,09-22-2026 23:25:55:689,-198085.361,-119200.959,159467.493,152396.25,144277.873,109235.657,127509.594,2783.731
3.48,09-22-2026 23:25:55:693,-205313.469,-127452.776,159413.625,152146.223,144264.998,109092.606,127404.809,2708.763
3.484,09-22-2026 23:25:55:697,-195612.588,-117629.184,158616.383,152401.57,143807.95,108048.333,126448.646,7956.506
3.488,09-22-2026 23:25:55:701,-181536.8,-102893.797,158120.8,152811.188,143511.834,107476.128,125898.525,11255.087
3.492,09-22-2026 23:25:55:705,-184199.787,-104858.515,158691.798,152779.27,143840.136,108248.604,126592.726,7731.603
3.496,09-22-2026 23:25:55:709,-198085.361,-119200.959,159456.719,152401.57,144271.436,109235.657,127509.594,2558.828
3.5,09-22-2026 23:25:55:713,-205503.682,-127452.776,159413.625,152162.183,144219.937,109106.911,127404.809,2183.989
3.504,09-22-2026 23:25:55:717,-196043.083,-118055.343,158613.969,152411.852,143753.233,108060.939,126464.203,6830.827
3.508,09-22-2026 23:25:55:721,-181916.02,-103009.624,158099.208,152816.15,143463.554,107473.267,125901.654,10235.624
3.512,09-22-2026 23:25:55:725,-184044.756,-104963.613,158668.731,152789.551,143785.419,108242.838,126592.055,6985.591
3.516,09-22-2026 23:25:55:729,-198171.818,-119423.135,159468.253,152427.811,144236.03,109250.275,127525.375,2110.541
3.52,09-22-2026 23:25:55:733,-205525.631,-127434.492,159413.491,152156.505,144236.03,109110.353,127410.308,2342.686
3.524,09-22-2026 23:25:55:737,-196043.083,-118055.343,158613.969,152390.573,143791.857,108060.939,126464.203,7372.499
3.528,09-22-2026 23:25:55:741,-181916.02,-103009.624,158088.256,152789.551,143489.303,107473.267,125901.654,10699.914
3.532,09-22-2026 23:25:55:745,-184431.798,-104963.613,158668.731,152768.272,143804.731,108256.83,126604.84,7372.499
3.536,09-22-2026 23:25:55:749,-198171.818,-119227.737,159457.3,152411.852,144242.468,109250.275,127512.589,2342.686
3.54,09-22-2026 23:25:55:753,-205719.153,-127434.492,159402.538,152156.505,144229.593,109110.353,127423.093,2187.923
3.544,09-22-2026 23:25:55:757,-196236.604,-118055.343,158603.017,152395.892,143772.545,108074.931,126464.203,7062.972
3.548,09-22-2026 23:25:55:761,-182109.542,-103009.624,158110.161,152810.83,143437.805,107473.267,125901.654,10777.296
3.552,09-22-2026 23:25:55:765,-184431.798,-104963.613,158657.778,152784.232,143714.609,108256.83,126592.055,7914.172
3.556,09-22-2026 23:25:55:769,-198365.339,-119423.135,159435.396,152427.811,144165.22,109250.275,127512.589,3426.031
3.56,09-22-2026 23:25:55:773,-205912.674,-127629.891,159402.538,152161.825,144158.783,109124.346,127423.093,3348.649
3.564,09-22-2026 23:25:55:777,-196623.647,-118446.141,158603.017,152385.253,143721.046,108088.923,126476.988,7991.553
3.568,09-22-2026 23:25:55:781,-182303.063,-103205.023,158077.304,152784.232,143424.93,107473.267,125901.654,11705.877
3.572,09-22-2026 23:25:55:785,-184625.32,-104963.613,158646.826,152773.592,143746.796,108256.83,126604.84,9074.898
3.576,09-22-2026 23:25:55:789,-198558.861,-119423.135,159424.443,152411.852,144190.969,109250.275,127525.375,4199.848
3.58,09-22-2026 23:25:55:793,-206299.717,-127825.29,159391.586,152151.186,144184.532,109138.338,127448.663,3967.703
3.584,09-22-2026 23:25:55:797,-196817.168,-118446.141,158592.064,152390.573,143733.921,108088.923,126489.774,8765.371
3.588,09-22-2026 23:25:55:801,-182690.106,-103400.422,158077.304,152784.232,143431.368,107487.259,125914.44,11938.022
3.592,09-22-2026 23:25:55:805,-184818.841,-105159.012,158635.874,152762.953,143746.796,108242.838,126604.84,8687.989
3.596,09-22-2026 23:25:55:809,-198945.904,-119423.135,159413.491,152406.532,144165.22,109236.283,127512.589,3658.176
3.6,09-22-2026 23:25:55:813,-206493.238,-127825.29,159369.681,152140.546,144107.284,109124.346,127435.878,3503.412
3.604,09-22-2026 23:25:55:817,-197409.489,-118741.094,158579.324,152367.595,143653.186,108093.394,126498.625,7938.758
3.608,09-22-2026 23:25:55:821,-182911.075,-103534.13,158053.611,152763.445,143348.711,107465.757,125901.923,11283.608
3.612,09-22-2026 23:25:55:825,-184982.277,-105074.075,158590.053,152737.74,143659.4,108218.921,126574.8,8007.021
3.616,09-22-2026 23:25:55:829,-198727.527,-119318.574,159373.258,152398.441,144119.22,109223.14,127501.592,3092.14
3.62,09-22-2026 23:25:55:833,-206447.462,-127788.276,159362.529,152146.536,144137.862,109125.508,127438.113,3023.878
3.624,09-22-2026 23:25:55:837,-197221.198,-118548.601,158568.595,152362.454,143696.683,108093.394,126485.929,7802.234
3.628,09-22-2026 23:25:55:841,-182911.075,-103534.13,158042.882,152758.304,143392.207,107479.704,125901.923,11283.608
3.632,09-22-2026 23:25:55:845,-184793.986,-104881.582,158579.324,152737.74,143690.469,108232.869,126574.8,8143.545
3.636,09-22-2026 23:25:55:849,-198727.527,-119318.574,159351.8,152388.159,144131.648,109223.14,127501.592,3433.451
3.64,09-22-2026 23:25:55:853,-206447.462,-127788.276,159351.8,152136.255,144137.862,109125.508,127425.418,3501.714
3.644,09-22-2026 23:25:55:857,-197409.489,-118741.094,158568.595,152357.313,143684.255,108093.394,126485.929,8143.545
3.648,09-22-2026 23:25:55:861,-182911.075,-103534.13,158032.153,152748.022,143348.711,107465.757,125901.923,11693.181
3.652,09-22-2026 23:25:55:865,-184982.277,-105266.569,158590.053,152737.74,143646.973,108246.816,126587.495,8621.381
3.656,09-22-2026 23:25:55:869,-198727.527,-119318.574,159362.529,152367.595,144094.365,109237.088,127514.288,3911.287
3.66,09-22-2026 23:25:55:873,-206824.044,-127980.769,159351.8,152110.55,144113.006,109139.455,127450.809,3774.763
3.664,09-22-2026 23:25:55:877,-197597.781,-118933.588,158557.866,152341.891,143684.255,108107.341,126511.321,8348.332
3.668,09-22-2026 23:25:55:881,-182911.075,-103534.13,158010.695,152737.74,143361.139,107465.757,125901.923,11693.181
3.672,09-22-2026 23:25:55:885,-184982.277,-105074.075,158568.595,152737.74,143671.828,108232.869,126587.495,8416.594
3.676,09-22-2026 23:25:55:889,-198727.527,-119126.081,159351.8,152377.877,144119.22,109223.14,127501.592,3638.238
3.68,09-22-2026 23:25:55:893,-206635.753,-127788.276,159341.071,152115.691,144137.862,109139.455,127450.809,3433.451
3.684,09-22-2026 23:25:55:897,-197409.489,-118741.094,158536.408,152336.75,143690.469,108107.341,126511.321,8143.545
3.688,09-22-2026 23:25:55:901,-183099.366,-103534.13,158010.695,152722.317,143379.78,107479.704,125901.923,11693.181
3.692,09-22-2026 23:25:55:905,-184982.277,-104881.582,158547.137,152706.895,143684.255,108232.869,126574.8,8484.856
3.696,09-22-2026 23:25:55:909,-198915.818,-119126.081,159351.8,152367.595,144131.648,109237.088,127514.288,3501.714
3.7,09-22-2026 23:25:55:913,-206824.044,-127980.769,159341.071,152110.55,144094.365,109153.403,127463.505,3296.927
3.704,09-22-2026 23:25:55:917,-197985.941,-119060.635,158570.338,152333.084,143636.423,108125.223,126533.404,7932.545
3.708,09-22-2026 23:25:55:921,-183355.025,-103657.601,158005.465,152728.933,143329.578,107479.526,125921.86,11432.291
3.712,09-22-2026 23:25:55:925,-185230.784,-105005.366,158537.749,152718.652,143636.423,108223.481,126597.107,8224.19
3.716,09-22-2026 23:25:55:929,-198923.82,-119060.635,159341.608,152358.789,144090.297,109234.137,127527.163,3484.95
3.72,09-22-2026 23:25:55:933,-206989.581,-127917.379,159330.745,152081.18,144115.868,109149.916,127476.201,3412.038
3.724,09-22-2026 23:25:55:937,-197985.941,-119060.635,158559.475,152317.661,143668.386,108125.223,126533.404,8005.456
3.728,09-22-2026 23:25:55:941,-183355.025,-103657.601,158005.465,152708.37,143342.363,107479.526,125921.86,11359.38
3.732,09-22-2026 23:25:55:945,-185043.208,-105005.366,158526.887,152682.665,143655.6,108223.481,126597.107,8297.102
3.736,09-22-2026 23:25:55:949,-198923.82,-119060.635,159330.745,152353.648,144115.868,109234.137,127527.163,3412.038
3.74,09-22-2026 23:25:55:953,-206989.581,-127917.379,159330.745,152091.462,144135.045,109163.953,127476.201,3120.393
3.744,09-22-2026 23:25:55:957,-197985.941,-119060.635,158559.475,152322.802,143693.956,108139.26,126546.145,7640.899
3.748,09-22-2026 23:25:55:961,-183355.025,-103657.601,158016.328,152723.793,143335.97,107507.599,125934.601,11213.557
3.752,09-22-2026 23:25:55:965,-185418.36,-105197.904,158548.612,152723.793,143623.637,108251.555,126622.588,8005.456
3.756,09-22-2026 23:25:55:969,-198923.82,-119060.635,159330.745,152358.789,144077.512,109248.174,127539.903,2755.836
3.76,09-22-2026 23:25:55:973,-207177.157,-128109.917,159330.745,152086.321,144096.69,109177.99,127501.682,2172.545
3.764,09-22-2026 23:25:55:977,-198173.517,-119253.173,158548.612,152312.52,143655.6,108153.296,126558.885,7057.608
3.768,09-22-2026 23:25:55:981,-183730.177,-103850.139,157994.602,152734.074,143335.97,107493.562,125934.601,10630.266
3.772,09-22-2026 23:25:55:985,-185230.784,-105005.366,158537.749,152728.933,143655.6,108237.518,126609.847,7567.988
3.776,09-22-2026 23:25:55:989,-198923.82,-119060.635,159341.608,152389.634,144109.475,109248.174,127539.903,2537.102
3.78,09-22-2026 23:25:55:993,-206989.581,-127917.379,159352.471,152122.307,144141.438,109192.027,127501.682,2172.545
3.784,09-22-2026 23:25:55:997,-198173.517,-119060.635,158559.475,152327.943,143693.956,108167.333,126571.626,6765.962
3.788,09-22-2026 23:25:56:001,-183355.025,-103657.601,157983.739,152708.37,143367.933,107493.562,125947.341,10557.355
3.792,09-22-2026 23:25:56:005,-185043.208,-104812.828,158537.749,152728.933,143674.778,108251.555,126609.847,7713.811
3.796,09-22-2026 23:25:56:009,-198736.244,-118675.559,159330.745,152399.916,144122.26,109262.211,127539.903,3120.393
3.8,09-22-2026 23:25:56:013,-207177.157,-128109.917,159363.334,152132.589,144115.868,109220.101,127527.163,3047.482
3.804,09-22-2026 23:25:56:017,-198205.077,-119157.239,158574.451,152335.096,143676.388,108194.737,126587.808,7989.855
3.808,09-22-2026 23:25:56:021,-183730.758,-103989.345,157996.346,152735.997,143354.522,107531.694,125957.489,11572.035
3.812,09-22-2026 23:25:56:025,-185234.584,-104767.186,158530.82,152741.272,143669.682,108263.804,126613.021,8534.969
3.816,09-22-2026 23:25:56:029,-198581.034,-118573.859,159327.079,152393.121,144125.658,109272.18,127545.893,3784.687
3.82,09-22-2026 23:25:56:033,-207040.051,-127907.947,159348.894,152124.095,144172.596,109230.74,127533.287,3473.193
3.824,09-22-2026 23:25:56:037,-198393.056,-119351.699,158574.451,152345.646,143750.148,108222.363,126613.021,8379.222
3.828,09-22-2026 23:25:56:041,-183542.78,-103794.885,157996.346,152751.822,143421.578,107545.508,125970.096,12117.149
3.832,09-22-2026 23:25:56:045,-185046.605,-104767.186,158519.913,152751.822,143723.326,108277.617,126638.234,9002.21
3.836,09-22-2026 23:25:56:049,-198769.012,-118768.319,159327.079,152393.121,144172.596,109285.993,127558.5,3940.434
3.84,09-22-2026 23:25:56:053,-207228.03,-127907.947,159348.894,152113.545,144206.124,109230.74,127533.287,3551.066
3.844,09-22-2026 23:25:56:057,-198581.034,-119351.699,158585.359,152329.821,143763.559,108222.363,126600.415,8067.728
3.848,09-22-2026 23:25:56:061,-183918.736,-103989.345,158007.253,152751.822,143394.756,107545.508,125970.096,11494.161
3.852,09-22-2026 23:25:56:065,-185422.562,-104961.646,158541.728,152772.922,143683.093,108291.43,126638.234,8301.348
3.856,09-22-2026 23:25:56:069,-198956.99,-118768.319,159327.079,152430.046,144145.774,109285.993,127558.5,3473.193
3.86,09-22-2026 23:25:56:073,-207416.008,-128102.407,159337.987,152139.92,144186.007,109258.367,127545.893,3005.952
3.864,09-22-2026 23:25:56:077,-198581.034,-119546.159,158563.543,152345.646,143750.148,108236.177,126613.021,7522.614
3.868,09-22-2026 23:25:56:081,-183918.736,-103989.345,158007.253,152751.822,143428.283,107559.321,125982.702,11104.794
3.872,09-22-2026 23:25:56:085,-185234.584,-104572.726,158509.005,152746.547,143716.621,108263.804,126625.627,8067.728
3.876,09-22-2026 23:25:56:089,-198581.034,-118379.398,159305.264,152387.846,144172.596,109272.18,127545.893,3005.952
3.88,09-22-2026 23:25:56:093,-207040.051,-127519.027,159316.171,152102.995,144206.124,109216.927,127533.287,2460.838
3.884,09-22-2026 23:25:56:097,-198393.056,-118962.779,158541.728,152308.721,143770.265,108222.363,126613.021,7211.12
3.888,09-22-2026 23:25:56:101,-183542.78,-103405.965,157963.623,152709.622,143434.989,107531.694,125957.489,10949.047
3.892,09-22-2026 23:25:56:105,-184858.627,-104183.805,158487.19,152720.172,143743.443,108263.804,126613.021,7911.981
3.896,09-22-2026 23:25:56:109,-198205.077,-117796.018,159283.448,152387.846,144186.007,109272.18,127545.893,2850.205
3.9,09-22-2026 23:25:56:113,-207040.051,-127519.027,159327.079,152108.27,144186.007,109244.553,127545.893,2227.217
3.904,09-22-2026 23:25:56:117,-198239.097,-118938.058,158550.758,152307.782,143758.329,108241.139,126624.51,7164.315
3.908,09-22-2026 23:25:56:121,-183608.181,-103520.719,157972.653,152715.746,143436.464,107541.216,125981.584,11371.808
3.912,09-22-2026 23:25:56:125,-184733.636,-104098.869,158463.497,152720.976,143736.871,108254.863,126624.51,8782.582
3.916,09-22-2026 23:25:56:129,-198239.097,-117974.474,159281.571,152381.006,144208.94,109270.437,127569.989,3927.783
3.92,09-22-2026 23:25:56:133,-206867.585,-127417.594,159325.201,152103.8,144266.161,109256.713,127569.989,3361.389
3.924,09-22-2026 23:25:56:137,-198426.673,-119130.775,158561.666,152323.473,143829.855,108241.139,126637.116,8054.362
3.928,09-22-2026 23:25:56:141,-183608.181,-103520.719,157961.745,152720.976,143493.684,107527.492,125968.978,12423.681
3.932,09-22-2026 23:25:56:145,-184921.212,-104291.586,158474.405,152736.667,143794.092,108254.863,126624.51,10158.108
3.936,09-22-2026 23:25:56:149,-198239.097,-117974.474,159270.663,152396.697,144251.856,109256.713,127557.382,5626.962
3.94,09-22-2026 23:25:56:153,-207055.161,-127803.028,159314.294,152109.03,144294.771,109242.989,127557.382,4817.829
3.944,09-22-2026 23:25:56:157,-198614.248,-119323.491,158550.758,152323.473,143851.312,108227.415,126637.116,9429.888
3.948,09-22-2026 23:25:56:161,-183983.333,-103906.152,157961.745,152731.437,143479.379,107541.216,125981.584,13151.901
3.952,09-22-2026 23:25:56:165,-185108.788,-104484.302,158474.405,152736.667,143765.482,108254.863,126624.51,10158.108
3.956,09-22-2026 23:25:56:169,-198614.248,-118359.908,159259.756,152391.467,144223.245,109256.713,127544.776,5060.569
3.96,09-22-2026 23:25:56:173,-207242.737,-127803.028,159303.386,152093.339,144273.313,109242.989,127544.776,4494.176
3.964,09-22-2026 23:25:56:177,-198801.824,-119516.208,158539.851,152286.861,143844.16,108227.415,126637.116,8863.495
3.968,09-22-2026 23:25:56:181,-183983.333,-103906.152,157939.93,152694.825,143507.989,107527.492,125968.978,12423.681
3.972,09-22-2026 23:25:56:185,-185108.788,-104484.302,158463.497,152736.667,143822.702,108254.863,126624.51,9348.975
3.976,09-22-2026 23:25:56:189,-198426.673,-118167.191,159259.756,152396.697,144287.618,109270.437,127544.776,4170.523
3.98,09-22-2026 23:25:56:193,-207430.313,-127995.745,159314.294,152103.8,144344.839,109270.437,127569.989,3361.389
3.984,09-22-2026 23:25:56:197,-198801.824,-119708.925,158528.943,152302.552,143908.533,108241.139,126649.723,7730.708
3.988,09-22-2026 23:25:56:201,-183983.333,-103906.152,157939.93,152726.207,143558.057,107527.492,125968.978,11290.894
3.992,09-22-2026 23:25:56:205,-185108.788,-104484.302,158441.682,152757.588,143858.465,108241.139,126611.904,8297.102
3.996,09-22-2026 23:25:56:209,-198426.673,-118167.191,159227.033,152417.618,144287.618,109256.713,127544.776,3604.129
4,09-22-2026 23:25:56:213,-207430.313,-127995.745,159292.478,152103.8,144309.076,109256.713,127569.989,2875.91
4.004,09-22-2026 23:25:56:217,-199033.21,-119821.801,158512.358,152272.287,143875.229,108229.561,126638.1,7374.064
4.008,09-22-2026 23:25:56:221,-184217.49,-104243.529,157925.759,152689.013,143541.159,107529.951,125973.269,11022.495
4.012,09-22-2026 23:25:56:225,-184977.27,-104438.258,158414.591,152720.663,143832.582,108229.561,126599.744,8052.842
4.016,09-22-2026 23:25:56:229,-198463.374,-118069.246,159207.587,152377.788,144308.808,109236.998,127533.064,3046.856
4.02,09-22-2026 23:25:56:233,-207200.85,-127805.665,159283.627,152098.212,144372.778,109250.991,127558.634,2452.925
4.024,09-22-2026 23:25:56:237,-198843.264,-119627.073,158534.084,152303.937,143953.415,108257.545,126650.885,7204.37
4.028,09-22-2026 23:25:56:241,-184027.545,-104048.801,157925.759,152720.663,143612.238,107543.943,125986.055,11616.425
4.032,09-22-2026 23:25:56:245,-184977.27,-104438.258,158447.18,152747.038,143903.66,108257.545,126625.315,9325.55
4.036,09-22-2026 23:25:56:249,-198273.429,-118069.246,159240.175,152404.163,144365.671,109264.983,127558.634,4743.8
