PseudoTimeSec,PseudoTimestamp,UF-FP1,UF-FP2,UF-O1,UF-O2,UF-C3,UF-CZ,UF-FZ,UF-C4
0.004,09-20-2026 18:37:31:912,-107516.272,-3506.452,35605.703,-7142.187,37889.068,40982.326,46522.787,21301.034
0.008,09-20-2026 18:37:31:916,-83524.848,20043.346,26753.071,966.355,36082.868,39330.711,47229.46,21235.856
0.012,09-20-2026 18:37:31:920,-131507.695,-27056.25,14064.299,-63901.983,34322.981,36710.907,49566.916,22311.288
0.016,09-20-2026 18:37:31:924,-186872.519,-82005.779,14064.299,-127148.614,35434.489,36995.669,50491.026,23386.72
0.02,09-20-2026 18:37:31:928,-146271.649,-40793.632,29999.036,-80119.068,38259.57,40412.803,47990.492,22539.41
0.024,09-20-2026 18:37:31:932,-44769.471,59293.009,41507.458,23670.274,38722.699,42349.18,45381.239,20812.201
0.028,09-20-2026 18:37:31:936,-46614.965,57330.526,24097.282,5831.481,35295.55,38932.045,47718.695,21366.211
0.032,09-20-2026 18:37:31:940,-155499.119,-50606.048,6096.93,-112553.237,33443.038,35514.91,51632.574,23517.075
0.036,09-20-2026 18:37:31:944,-233009.873,-127142.892,11703.597,-177421.576,36082.868,37166.525,51958.731,24690.273
0.04,09-20-2026 18:37:31:948,-177645.049,-72193.363,31474.475,-97957.861,39046.888,41210.135,48479.727,23158.598
0.044,09-20-2026 18:37:31:952,-70606.389,33780.728,41802.545,17183.44,39093.201,42747.845,45707.395,21138.089
0.048,09-20-2026 18:37:31:956,-81679.354,22005.829,24097.282,-5520.479,35434.489,38875.093,48262.289,21757.277
0.052,09-20-2026 18:37:31:960,-190563.508,-85930.745,6687.105,-120661.78,33581.976,35514.91,51958.731,23810.375
0.056,09-20-2026 18:37:31:964,-264383.273,-160505.105,12588.86,-182286.701,36221.807,37052.621,52230.528,24885.806
0.06,09-20-2026 18:37:31:968,-207172.955,-101630.61,33245.001,-102822.987,39185.827,41096.23,48588.446,23288.953
0.064,09-20-2026 18:37:31:972,-98288.801,6305.964,43573.072,13940.023,39278.452,42747.845,45816.114,21235.856
0.068,09-20-2026 18:37:31:976,-103825.284,-1543.969,24687.457,-7142.187,35619.74,38932.045,48316.648,21822.455
0.072,09-20-2026 18:37:31:980,-207172.955,-105555.577,7277.281,-119040.071,33767.227,35571.863,51958.731,23842.963
0.07600001,09-20-2026 18:37:31:984,-275456.238,-178167.454,12588.86,-179043.285,36314.432,36995.669,52284.888,24918.395
0.08000001,09-20-2026 18:37:31:988,-223782.402,-121255.442,32064.65,-99579.57,39232.139,40982.326,48697.164,23321.542
0.08400001,09-20-2026 18:37:31:992,-114898.248,-11356.385,41212.37,15561.732,39324.765,42690.893,45816.114,21268.445
0.08800001,09-20-2026 18:37:31:996,-116743.742,-15281.351,24392.369,-5520.479,35712.366,38932.045,48262.289,21822.455
0.09200001,09-20-2026 18:37:32:000,-214554.931,-117330.476,8457.632,-117418.363,33813.54,35571.863,51958.731,23842.963
0.096,09-20-2026 18:37:32:004,-279147.226,-189942.353,13769.211,-179043.285,36268.119,36938.716,52284.888,24950.984
0.1,09-20-2026 18:37:32:008,-234855.367,-134992.824,34720.44,-101201.278,39232.139,40868.421,48751.524,23386.72
0.104,09-20-2026 18:37:32:012,-125592.843,-23898.575,47629.243,11916.564,39383.014,42595.094,45904.225,21349.09
0.108,09-20-2026 18:37:32:016,-125592.843,-23898.575,31179.924,-4357.026,35794.62,38998.519,48217.63,21804.708
0.112,09-20-2026 18:37:32:020,-219760.25,-122916.221,12621.717,-113833.903,33889.67,35674.412,51888.904,23826.513
0.116,09-20-2026 18:37:32:024,-280907.918,-196830.803,13887.049,-175969.428,36281.933,36927.764,52291.236,24965.557
0.12,09-20-2026 18:37:32:028,-241773.411,-142440.828,27805.704,-101998.565,39205.809,40796.806,48821.127,23456.323
0.124,09-20-2026 18:37:32:032,-134153.516,-32266.263,33288.811,10437.147,39471.616,42540.6,45954.516,21406.042
0.128,09-20-2026 18:37:32:036,-130484.656,-29477.034,17261.269,-4357.026,35883.222,38998.519,48117.047,21776.232
0.132,09-20-2026 18:37:32:040,-220983.204,-125705.451,4607.946,-110875.068,33978.273,35728.906,51738.03,23741.084
0.136,09-20-2026 18:37:32:044,-280907.918,-199620.032,10934.607,-174490.011,36237.632,36873.27,52291.236,24908.605
0.14,09-20-2026 18:37:32:048,-245442.271,-146624.672,32867.033,-101998.565,39205.809,40633.326,48871.419,23456.323
0.144,09-20-2026 18:37:32:052,-139045.33,-37844.722,47207.465,8957.73,39471.616,42486.106,45954.516,21462.994
0.148,09-20-2026 18:37:32:056,-132930.563,-32266.263,32023.478,-2877.608,35883.222,39053.013,48117.047,21804.708
0.152,09-20-2026 18:37:32:060,-220983.204,-127100.066,13465.272,-107916.234,33889.67,35783.399,51687.739,23712.608
0.156,09-20-2026 18:37:32:064,-280907.918,-201014.647,15995.937,-173010.593,36060.427,36764.283,52240.944,24908.605
0.16,09-20-2026 18:37:32:068,-247888.177,-150808.516,37928.362,-103477.982,38984.303,40524.339,48921.71,23484.799
0.164,09-20-2026 18:37:32:072,-142714.19,-42028.566,54377.682,5998.895,39338.713,42377.119,46055.099,21519.947
0.168,09-20-2026 18:37:32:076,-135376.47,-36450.107,40459.027,-2877.608,35838.921,39107.506,48066.756,21833.184
0.172,09-20-2026 18:37:32:080,-222206.157,-127100.066,21057.266,-104957.399,33845.369,35837.893,51637.447,23712.608
0.176,09-20-2026 18:37:32:084,-280907.918,-201014.647,21900.82,-170051.759,35971.825,36764.283,52240.944,24937.081
0.18,09-20-2026 18:37:32:088,-250334.084,-153597.746,42146.136,-103477.982,38895.701,40415.351,48972.002,23513.275
0.184,09-20-2026 18:37:32:092,-147606.003,-47607.025,58173.678,4519.478,39250.11,42322.626,46105.39,21576.899
0.188,09-20-2026 18:37:32:096,-139045.33,-37844.722,43833.246,-4357.026,35794.62,39107.506,48066.756,21833.184
0.192,09-20-2026 18:37:32:100,-222206.157,-127100.066,23587.93,-103477.982,33845.369,35946.88,51536.864,23712.608
0.196,09-20-2026 18:37:32:104,-280907.918,-201014.647,23587.93,-167092.924,35838.921,36764.283,52240.944,24908.605
0.2,09-20-2026 18:37:32:108,-251557.037,-154992.36,42989.691,-104957.399,38718.496,40360.858,49072.584,23570.227
0.204,09-20-2026 18:37:32:112,-150158.304,-49958.161,58667.16,944.406,39131.333,42238.539,46203.514,21638.098
0.208,09-20-2026 18:37:32:116,-140087.547,-40939.366,45881.068,-5690.486,35755.147,39156.501,48022.857,21846.953
0.212,09-20-2026 18:37:32:120,-221772.578,-128550.515,26519.272,-102559.907,33832.003,35975.043,51470.033,23700.538
0.216,09-20-2026 18:37:32:124,-279959.176,-201989.272,26519.272,-164927.89,35797.883,36770.408,52236.071,24901.453
0.22,09-20-2026 18:37:32:128,-250865.877,-155606.899,45150.434,-102559.907,38661.231,40299.838,49028.283,23596.111
0.224,09-20-2026 18:37:32:132,-150158.304,-49958.161,58667.16,2271.384,39131.333,42238.539,46155.637,21638.098
0.228,09-20-2026 18:37:32:136,-138968.574,-39650.966,45150.434,-4363.508,35755.147,39156.501,48022.857,21846.953
0.232,09-20-2026 18:37:32:140,-221772.578,-128550.515,24327.37,-102559.907,33832.003,35925.333,51517.91,23674.431
0.236,09-20-2026 18:37:32:144,-279959.176,-201989.272,22866.103,-164927.89,35840.62,36720.697,52236.071,24953.666
0.24,09-20-2026 18:37:32:148,-250865.877,-155606.899,40035.998,-101232.928,38746.704,40299.838,49076.161,23674.431
0.244,09-20-2026 18:37:32:152,-149039.331,-49958.161,51360.822,3598.363,39216.806,42238.539,46155.637,21716.418
0.248,09-20-2026 18:37:32:156,-138968.574,-39650.966,32364.342,-3036.529,35797.883,39106.791,48022.857,21846.953
0.252,09-20-2026 18:37:32:160,-221772.578,-128550.515,12271.912,-101232.928,33832.003,35925.333,51470.033,23674.431
0.256,09-20-2026 18:37:32:164,-279959.176,-201989.272,16655.715,-164927.89,35840.62,36670.987,52236.071,24927.559
0.26,09-20-2026 18:37:32:168,-250865.877,-155606.899,34921.561,-102559.907,38746.704,40299.838,49076.161,23648.324
0.264,09-20-2026 18:37:32:172,-147920.358,-48669.761,45881.068,3598.363,39259.543,42238.539,46155.637,21664.205
0.268,09-20-2026 18:37:32:176,-137849.601,-38362.567,30903.075,-4363.508,35840.62,39106.791,47974.98,21820.846
0.272,09-20-2026 18:37:32:180,-219534.632,-125973.716,14463.814,-101232.928,33874.739,35925.333,51470.033,23674.431
0.276,09-20-2026 18:37:32:184,-278840.203,-200700.873,17021.032,-164927.89,35883.356,36720.697,52236.071,24953.666
0.28,09-20-2026 18:37:32:188,-250865.877,-155606.899,35286.878,-101232.928,38746.704,40299.838,49076.161,23674.431
0.284,09-20-2026 18:37:32:192,-149039.331,-49958.161,46977.019,2271.384,39259.543,42238.539,46203.514,21742.525
0.288,09-20-2026 18:37:32:196,-137849.601,-38362.567,33094.976,-4363.508,35883.356,39156.501,47974.98,21820.846
0.292,09-20-2026 18:37:32:200,-219534.632,-124685.317,16290.398,-99905.95,33917.476,35975.043,51422.155,23648.324
0.296,09-20-2026 18:37:32:204,-278840.203,-199412.474,18116.983,-163600.911,35883.356,36720.697,52236.071,24953.666
0.3,09-20-2026 18:37:32:208,-250865.877,-154318.5,39305.364,-101232.928,38746.704,40250.127,49171.916,23674.431
0.304,09-20-2026 18:37:32:212,-149061.236,-48572.397,56271.634,2240.762,39244.925,42230.537,46216.076,21741.542
0.308,09-20-2026 18:37:32:216,-136826.293,-36598.21,42673.548,-4655.868,35848.711,39140.184,48007.256,21847.936
0.312,09-20-2026 18:37:32:220,-219134.089,-124408.916,23578.363,-99829.373,33889.357,35999.988,51440.349,23656.639
0.316,09-20-2026 18:37:32:224,-278084.267,-200245.434,23578.363,-163278.376,35805.17,36697.809,52286.184,24959.97
0.32,09-20-2026 18:37:32:228,-251389.846,-155009.616,42384.227,-99829.373,38722.43,40236.761,49151.62,23709.836
0.324,09-20-2026 18:37:32:232,-150173.503,-48572.397,57428.918,3620.089,39288.466,42280.381,46216.076,21741.542
0.328,09-20-2026 18:37:32:236,-136826.293,-36598.21,43252.19,-3276.542,35892.252,39190.029,48007.256,21847.936
0.332,09-20-2026 18:37:32:240,-219134.089,-124408.916,23289.043,-98450.047,33932.899,35999.988,51490.104,23683.238
0.336,09-20-2026 18:37:32:244,-278084.267,-200245.434,22999.722,-160519.723,35848.711,36697.809,52286.184,25013.167
0.34,09-20-2026 18:37:32:248,-251389.846,-155009.616,40648.301,-98450.047,38765.972,40286.605,49151.62,23736.435
0.344,09-20-2026 18:37:32:252,-149061.236,-48572.397,53957.066,4999.415,39332.007,42280.381,46216.076,21768.14
0.348,09-20-2026 18:37:32:256,-136826.293,-36598.21,40358.98,-1897.216,35935.794,39190.029,48007.256,21847.936
0.352,09-20-2026 18:37:32:260,-219134.089,-124408.916,22131.759,-98450.047,33932.899,35999.988,51490.104,23683.238
0.356,09-20-2026 18:37:32:264,-278084.267,-200245.434,22999.722,-161899.05,35935.794,36697.809,52335.939,25039.765
0.36,09-20-2026 18:37:32:268,-251389.846,-155009.616,43252.19,-98450.047,38853.054,40286.605,49151.62,23736.435
0.364,09-20-2026 18:37:32:272,-149061.236,-47241.932,58875.523,6378.741,39375.548,42330.225,46216.076,21741.542
0.368,09-20-2026 18:37:32:276,-136826.293,-35267.745,45566.758,861.436,35935.794,39239.873,48007.256,21847.936
0.372,09-20-2026 18:37:32:280,-218021.821,-121747.985,26760.894,-95691.394,33932.899,36049.832,51490.104,23683.238
0.376,09-20-2026 18:37:32:284,-278084.267,-198914.969,25892.931,-161899.05,35848.711,36747.654,52335.939,25039.765
0.38,09-20-2026 18:37:32:288,-251389.846,-155009.616,44409.474,-101208.699,38765.972,40286.605,49251.13,23789.632
0.384,09-20-2026 18:37:32:292,-151285.771,-49902.862,58875.523,4999.415,39375.548,42330.225,46265.831,21821.338
0.388,09-20-2026 18:37:32:296,-136826.293,-35267.745,46145.4,861.436,35979.335,39339.562,47957.501,21874.535
0.392,09-20-2026 18:37:32:300,-215797.286,-121747.985,26471.573,-95691.394,33845.816,35999.988,51440.349,23630.041
0.396,09-20-2026 18:37:32:304,-278084.267,-204236.83,24446.326,-168795.68,35631.005,36498.432,52534.959,25119.561
0.4,09-20-2026 18:37:32:308,-256951.184,-162992.407,43830.832,-109484.656,38809.513,40236.761,49350.64,23922.625
0.404,09-20-2026 18:37:32:312,-152618.248,-50903.684,59100.337,4007.444,39559.503,42547.35,46112.722,21796.035
0.408,09-20-2026 18:37:32:316,-132139.624,-30502.263,46323.007,5454.049,36067.714,39451.544,47743.818,21739.351
0.412,09-20-2026 18:37:32:320,-211644.868,-115022.435,27157.012,-91468.479,33867.408,36142.234,51321.706,23581.582
0.416,09-20-2026 18:37:32:324,-276694.614,-198085.361,25414.649,-163798.724,35637.219,36569.242,52479.258,25055.367
0.42,09-20-2026 18:37:32:328,-255011.365,-158739.765,44580.644,-108827.738,38698.514,40145.432,49427.53,23921.686
0.424,09-20-2026 18:37:32:332,-147799.748,-45074.707,61423.488,5454.049,39703.001,42654.102,46112.722,21824.377
0.428,09-20-2026 18:37:32:336,-123707.25,-21758.797,48355.764,9793.864,36115.546,39611.672,47638.586,21682.667
0.432,09-20-2026 18:37:32:340,-209235.619,-115022.435,26576.224,-94361.689,33628.244,35875.355,51532.17,23609.924
0.436,09-20-2026 18:37:32:344,-276694.614,-206828.827,24543.467,-173924.959,35493.721,36302.362,52794.955,25282.103
0.44,09-20-2026 18:37:32:348,-259829.865,-167483.231,44580.644,-113167.553,38746.347,40145.432,49480.146,24006.712
0.444,09-20-2026 18:37:32:352,-157436.747,-55275.417,60842.7,-332.37,39607.336,42493.974,46165.338,21852.719
0.448,09-20-2026 18:37:32:356,-132139.624,-30502.263,49226.946,5454.049,36259.045,39611.672,47638.586,21711.009
0.452,09-20-2026 18:37:32:360,-206826.369,-104821.724,31222.526,-81342.245,34250.07,36462.49,50953.394,23411.53
0.456,09-20-2026 18:37:32:364,-274285.364,-180598.43,28608.981,-149332.675,35780.717,36729.37,52058.33,24800.289
0.46,09-20-2026 18:37:32:368,-256215.99,-154368.032,43709.462,-107381.133,38315.852,39718.424,49585.378,23865.002
0.464,09-20-2026 18:37:32:372,-171892.246,-68390.616,57357.974,-20584.839,39081.176,41693.335,47007.194,22221.166
0.468,09-20-2026 18:37:32:376,-152618.248,-49446.44,48646.158,-13351.815,36450.375,39451.544,48059.514,22079.456
0.472,09-20-2026 18:37:32:380,-212849.493,-110650.702,33545.677,-82788.85,34680.564,36782.746,50742.93,23411.53
0.476,09-20-2026 18:37:32:384,-273080.739,-173312.208,31512.92,-142099.651,35972.048,37049.626,51742.634,24601.895
0.48,09-20-2026 18:37:32:388,-252602.116,-148539.054,45161.431,-104487.923,38315.852,39718.424,49532.762,23808.318
0.484,09-20-2026 18:37:32:392,-171892.246,-66933.372,58229.155,-20584.839,39129.009,41639.959,47059.81,22277.85
0.488,09-20-2026 18:37:32:396,-150208.998,-45074.707,49807.733,-11905.21,36450.375,39451.544,48059.514,22079.456
0.492,09-20-2026 18:37:32:400,-214054.118,-112107.946,33255.283,-87128.665,34345.735,36569.242,50953.394,23439.872
0.496,09-20-2026 18:37:32:404,-275489.989,-189341.896,29480.163,-155119.095,35541.554,36569.242,52216.178,24828.631
0.5,09-20-2026 18:37:32:408,-259829.865,-160197.009,45742.219,-111720.948,38411.518,39825.176,49637.994,23950.028
0.504,09-20-2026 18:37:32:412,-157816.95,-52246.8,62651.224,-2123.46,39674.793,42394.688,46330.696,21949.547
0.508,09-20-2026 18:37:32:416,-128270.135,-23736.927,51875.18,9361.179,36268.477,39690.127,47575.241,21650.213
0.512,09-20-2026 18:37:32:420,-206633.429,-109266.547,30659.843,-87437.923,33686.269,36002.089,51308.876,23479.479
0.516,09-20-2026 18:37:32:424,-276004.213,-203181.425,26618.827,-171111.723,35279.546,36186.491,52802.331,25208.968
0.52,09-20-2026 18:37:32:428,-260588.483,-167963.346,45813.655,-113688.527,38685.863,39997.463,49628.741,24078.148
0.524,09-20-2026 18:37:32:432,-152678.374,-47215.646,64671.733,6079.853,39839.615,42763.492,45957.332,21783.25
0.528,09-20-2026 18:37:32:436,-121846.914,-17028.721,52211.932,15923.83,36158.596,39690.127,47450.787,21517.175
0.532,09-20-2026 18:37:32:440,-206633.429,-109266.547,29649.589,-89078.586,33466.507,35879.154,51495.558,23512.739
0.536,09-20-2026 18:37:32:444,-276004.213,-206535.528,25945.324,-174393.049,35224.606,36125.023,52989.012,25242.227
0.54,09-20-2026 18:37:32:448,-259303.839,-167963.346,46487.158,-115329.19,38740.803,40120.398,49628.741,23945.111
0.544,09-20-2026 18:37:32:452,-147539.797,-42184.492,65681.987,9361.179,39949.496,42947.893,45832.878,21583.694
0.548,09-20-2026 18:37:32:456,-117992.981,-13674.618,51875.18,15923.83,36048.715,39690.127,47450.787,21450.656
0.552,09-20-2026 18:37:32:460,-206633.429,-110943.599,28639.335,-94000.574,33301.685,35633.285,51682.24,23645.776
0.5560001,09-20-2026 18:37:32:464,-276004.213,-214920.785,25271.821,-180955.7,35279.546,36002.089,53237.921,25441.784
0.56,09-20-2026 18:37:32:468,-259303.839,-169640.397,47160.661,-113688.527,38960.566,40304.8,49566.513,24011.63
0.564,09-20-2026 18:37:32:472,-142401.22,-35476.286,66355.49,17564.493,40059.378,43132.295,45646.196,21483.916
0.568,09-20-2026 18:37:32:476,-114139.049,-8643.464,51538.429,20845.818,35883.893,39567.192,47450.787,21417.397
0.572,09-20-2026 18:37:32:480,-207918.073,-112620.65,27629.081,-97281.9,33136.863,35448.883,51868.922,23712.295
0.576,09-20-2026 18:37:32:484,-276004.213,-218274.888,24935.07,-185877.688,35279.546,35940.622,53362.376,25608.081
0.58,09-20-2026 18:37:32:488,-258019.195,-169640.397,47834.164,-113688.527,39070.447,40366.267,49504.286,24044.889
0.5840001,09-20-2026 18:37:32:492,-138547.288,-32122.184,67702.495,20845.818,40114.318,43193.763,45521.742,21450.656
0.588,09-20-2026 18:37:32:496,-112854.405,-6966.413,52211.932,20845.818,35828.952,39505.725,47450.787,21417.397
0.592,09-20-2026 18:37:32:500,-207918.073,-114297.702,27965.832,-98922.562,33136.863,35387.416,51993.376,23778.814
0.596,09-20-2026 18:37:32:504,-276004.213,-219951.939,25271.821,-187518.351,35279.546,35879.154,53424.603,25641.34
0.6,09-20-2026 18:37:32:508,-258019.195,-169640.397,48844.418,-113688.527,39070.447,40366.267,49504.286,24044.889
0.604,09-20-2026 18:37:32:512,-136540.682,-31152.565,68710.693,22930.789,40125.941,43237.572,45479.899,21420.481
0.608,09-20-2026 18:37:32:516,-112051.754,-5919.681,52066.064,22930.789,35858.01,39538.805,47484.046,21420.481
0.612,09-20-2026 18:37:32:520,-207429.687,-113579.987,26922.05,-97479.266,33176.873,35408.516,51993.376,23799.065
0.6160001,09-20-2026 18:37:32:524,-275740.91,-219558.101,24797.204,-189058.744,35310.839,35901.685,53433.857,25616.038
0.62,09-20-2026 18:37:32:528,-258985.327,-172456.717,48524.654,-117830.261,39031.6,40340.205,49550.822,23997.28
0.624,09-20-2026 18:37:32:532,-142985.137,-36199.142,68356.552,19538.956,40071.224,43175.926,45605.158,21453.517
0.628,09-20-2026 18:37:32:536,-113340.645,-7601.873,53482.628,24626.705,35967.444,39600.452,47484.046,21420.481
0.632,09-20-2026 18:37:32:540,-204851.905,-106851.218,29755.179,-88999.684,33505.176,35716.747,51680.228,23732.993
0.636,09-20-2026 18:37:32:544,-275740.91,-207782.755,26567.909,-177187.33,35310.839,36024.977,53183.338,25450.859
0.64,09-20-2026 18:37:32:548,-261563.109,-169092.333,46753.949,-117830.261,38648.58,39970.328,49801.341,24063.352
0.6440001,09-20-2026 18:37:32:552,-152007.374,-46292.296,65877.565,9363.459,39907.073,42867.695,45980.936,21684.768
0.648,09-20-2026 18:37:32:556,-121073.991,-14330.642,51003.641,21234.872,36131.595,39662.098,47484.046,21519.589
0.652,09-20-2026 18:37:32:560,-204851.905,-108533.41,27984.473,-87303.768,33559.893,35778.393,51554.969,23633.885
0.656,09-20-2026 18:37:32:564,-275740.91,-209464.948,24443.063,-178883.246,35256.122,35963.331,53183.338,25417.823
0.66,09-20-2026 18:37:32:568,-261563.109,-170774.525,44274.961,-119526.177,38758.014,40031.974,49738.711,24063.352
0.664,09-20-2026 18:37:32:572,-150718.483,-42927.911,61982.013,11059.375,40016.507,42990.988,45855.677,21651.733
0.668,09-20-2026 18:37:32:576,-117207.318,-10966.258,47816.372,22930.789,36131.595,39723.744,47421.416,21453.517
0.6720001,09-20-2026 18:37:32:580,-204851.905,-108533.41,25859.627,-88999.684,33450.458,35655.1,51680.228,23666.921
0.6760001,09-20-2026 18:37:32:584,-274452.019,-212829.332,23734.781,-182275.079,35256.122,35840.039,53308.598,25516.93
0.68,09-20-2026 18:37:32:588,-258985.327,-170774.525,46399.808,-114438.428,38922.166,40155.267,49676.081,24030.316
0.684,09-20-2026 18:37:32:592,-142985.137,-36199.142,67648.27,19538.956,40125.941,43175.926,45667.788,21519.589
0.688,09-20-2026 18:37:32:596,-112051.754,-5919.681,53482.628,26322.621,36076.878,39662.098,47421.416,21453.517
0.692,09-20-2026 18:37:32:600,-204851.905,-108533.41,29401.038,-90695.601,33395.741,35593.454,51805.487,23766.029
0.696,09-20-2026 18:37:32:604,-274452.019,-216193.717,25859.627,-185666.911,35310.839,35840.039,53433.857,25616.038
0.7,09-20-2026 18:37:32:608,-258985.327,-169092.333,48524.654,-114438.428,39031.6,40278.559,49613.452,24063.352
0.7040001,09-20-2026 18:37:32:612,-141382.16,-33754.979,67543.574,21629.604,40180.479,43192.332,45651.158,21526.026
0.708,09-20-2026 18:37:32:616,-112011.163,-5758.838,52879.936,26641.581,36052.023,39660.712,47492.495,21493.035
0.712,09-20-2026 18:37:32:620,-203955.153,-109509.243,29138.807,-91975.193,33458.505,35590.37,51850.325,23835.409
0.716,09-20-2026 18:37:32:624,-274190.146,-214906.48,25996.599,-185532.085,35363.947,35829.802,53446.15,25682.914
0.72,09-20-2026 18:37:32:628,-258866.147,-170442.02,48690.325,-115364.416,39068.972,40259.292,49640.721,24099.338
0.724,09-20-2026 18:37:32:632,-141382.16,-35401.81,69289.246,19958.946,40180.479,43192.332,45651.158,21559.017
0.728,09-20-2026 18:37:32:636,-112011.163,-5758.838,56022.144,24970.922,36104.952,39660.712,47492.495,21493.035
0.7320001,09-20-2026 18:37:32:640,-203955.153,-107862.411,30884.478,-91975.193,33458.505,35590.37,51850.325,23802.417
0.7360001,09-20-2026 18:37:32:644,-274190.146,-214906.48,26345.733,-185532.085,35363.947,35829.802,53446.15,25682.914
0.74,09-20-2026 18:37:32:648,-258866.147,-170442.02,48690.325,-117035.075,39016.043,40199.434,49702.099,24165.32
0.744,09-20-2026 18:37:32:652,-143936.159,-37048.642,67543.574,16617.628,40127.55,43132.474,45712.536,21625
0.748,09-20-2026 18:37:32:656,-112011.163,-5758.838,52879.936,24970.922,36104.952,39720.57,47431.117,21526.026
0.752,09-20-2026 18:37:32:660,-201401.153,-104568.747,30535.344,-90304.534,33564.363,35710.086,51727.569,23802.417
0.756,09-20-2026 18:37:32:664,-274190.146,-211612.816,26345.733,-183861.427,35311.018,35829.802,53446.15,25649.923
0.7600001,09-20-2026 18:37:32:668,-260143.147,-170442.02,48690.325,-118705.734,38910.185,40079.718,49824.855,24231.303
0.7640001,09-20-2026 18:37:32:672,-147767.159,-40342.306,69289.246,11605.652,40074.621,43072.616,45896.67,21756.965
0.768,09-20-2026 18:37:32:676,-113288.163,-7405.669,56720.413,23300.263,36210.809,39780.428,47431.117,21559.017
0.772,09-20-2026 18:37:32:680,-200124.154,-101275.084,34026.686,-86963.217,33670.221,35829.802,51604.814,23736.435
0.776,09-20-2026 18:37:32:684,-272913.146,-206672.321,28789.673,-178849.45,35311.018,35889.66,53384.772,25616.932
0.78,09-20-2026 18:37:32:688,-260143.147,-170442.02,50435.996,-118705.734,38804.327,39960.002,49947.61,24264.294
0.784,09-20-2026 18:37:32:692,-151598.159,-45282.801,70336.648,8264.334,40074.621,42952.9,46080.803,21855.938
0.788,09-20-2026 18:37:32:696,-115842.162,-9052.501,59513.487,21629.604,36422.525,39840.286,47492.495,21592.009
0.7920001,09-20-2026 18:37:32:700,-198847.154,-99628.252,37168.895,-83621.899,33881.937,36009.376,51543.436,23736.435
0.7960001,09-20-2026 18:37:32:704,-272913.146,-205025.489,31582.747,-175508.133,35363.947,35889.66,53323.394,25550.95
0.8,09-20-2026 18:37:32:708,-260143.147,-170442.02,52181.667,-117035.075,38857.256,39960.002,50008.988,24297.285
0.804,09-20-2026 18:37:32:712,-151179.153,-44441.616,73620.254,10431.246,40155.311,42944.138,46086.972,21926.704
0.808,09-20-2026 18:37:32:716,-113971.187,-6206.007,62871.791,22756.088,36435.355,39899.831,47439.745,21611.678
0.812,09-20-2026 18:37:32:720,-197689.11,-100057.048,39521.684,-84646.101,33847.56,35942.231,51626.897,23746.851
0.816,09-20-2026 18:37:32:724,-272105.041,-207811.947,32108.951,-177962.757,35357.107,35820.459,53495.011,25637.004
0.8200001,09-20-2026 18:37:32:728,-260145.338,-171314.32,52864.603,-118099.242,38915.326,39960.717,50016.454,24341.899
0.8240001,09-20-2026 18:37:32:732,-149850.297,-42703.634,75102.8,12191.938,40263.136,43005.025,46022.555,21856.698
0.8280001,09-20-2026 18:37:32:736,-111313.476,-6206.007,62501.155,26277.471,36489.268,39899.831,47439.745,21576.675
0.832,09-20-2026 18:37:32:740,-197689.11,-100057.048,36927.228,-84646.101,33847.56,35881.345,51626.897,23746.851
0.836,09-20-2026 18:37:32:744,-272105.041,-209549.929,30997.042,-179723.448,35357.107,35820.459,53559.429,25707.01
0.84,09-20-2026 18:37:32:748,-260145.338,-173052.302,52864.603,-118099.242,39023.151,40021.603,50016.454,24376.902
0.844,09-20-2026 18:37:32:752,-145863.729,-39227.669,74361.527,15713.321,40370.961,43187.683,45893.719,21821.695
0.848,09-20-2026 18:37:32:756,-108655.764,-2730.042,62130.518,28038.162,36435.355,39899.831,47439.745,21471.667
0.8520001,09-20-2026 18:37:32:760,-197689.11,-101795.03,38039.137,-88167.484,33739.735,35759.572,51820.15,23781.854
0.8560001,09-20-2026 18:37:32:764,-272105.041,-214763.876,31367.678,-185005.523,35357.107,35698.686,53688.264,25777.015
0.86,09-20-2026 18:37:32:768,-260145.338,-174790.284,54347.149,-118099.242,39130.976,40143.375,49952.036,24306.896
0.864,09-20-2026 18:37:32:772,-141877.161,-35751.705,76585.347,20995.396,40478.786,43309.455,45700.466,21646.681
0.868,09-20-2026 18:37:32:776,-104669.196,745.922,62501.155,31559.546,36327.53,39838.945,47375.327,21366.658
0.872,09-20-2026 18:37:32:780,-197689.11,-103533.012,36556.591,-88167.484,33631.91,35637.8,51884.568,23781.854
0.876,09-20-2026 18:37:32:784,-272105.041,-218239.84,30997.042,-190287.598,35357.107,35637.8,53817.1,25777.015
0.8800001,09-20-2026 18:37:32:788,-258816.482,-174790.284,54717.786,-119859.933,39130.976,40143.375,49887.618,24236.891
0.8840001,09-20-2026 18:37:32:792,-139219.45,-34013.722,78067.893,22756.088,40478.786,43370.341,45636.048,21541.673
0.8880001,09-20-2026 18:37:32:796,-103340.34,2483.905,65095.611,33320.237,36327.53,39899.831,47375.327,21331.656
0.892,09-20-2026 18:37:32:800,-197689.11,-101795.03,38780.411,-88167.484,33631.91,35637.8,51948.986,23746.851
0.896,09-20-2026 18:37:32:804,-272105.041,-218239.84,32479.588,-190287.598,35357.107,35637.8,53817.1,25777.015
0.9,09-20-2026 18:37:32:808,-258816.482,-174790.284,56200.332,-119859.933,39184.888,40143.375,49887.618,24201.888
0.904,09-20-2026 18:37:32:812,-139237.465,-33701.916,78497.941,24741.861,40524.741,43409.144,45592.999,21459.999
0.9080001,09-20-2026 18:37:32:816,-101004.359,3687.546,65075.048,35816.972,36301.2,39857.094,47305.053,21203.401
0.9120001,09-20-2026 18:37:32:820,-196587.124,-101359.037,38996.284,-87855.096,33613.492,35619.561,51914.43,23696.068
0.9160001,09-20-2026 18:37:32:824,-271687.868,-218868.773,32093.082,-193068.647,35313.879,35619.561,53889.877,25785.509
0.92,09-20-2026 18:37:32:828,-259398.655,-176137.96,55487.267,-122926.28,39153.461,40168.678,49938.983,24209.264
0.924,09-20-2026 18:37:32:832,-139237.465,-33701.916,78497.941,22896.009,40524.741,43471.461,45592.999,21496.656
0.928,09-20-2026 18:37:32:836,-101004.359,5467.997,65458.559,35816.972,36301.2,39919.411,47305.053,21240.058
0.932,09-20-2026 18:37:32:840,-195221.656,-101359.037,39763.306,-87855.096,33613.492,35619.561,51914.43,23696.068
0.936,09-20-2026 18:37:32:844,-271687.868,-218868.773,32860.104,-194914.498,35313.879,35557.244,53889.877,25785.509
0.9400001,09-20-2026 18:37:32:848,-259398.655,-176137.96,56254.289,-126617.983,39153.461,40106.361,49938.983,24209.264
0.9440001,09-20-2026 18:37:32:852,-139237.465,-33701.916,78114.429,21050.158,40524.741,43471.461,45592.999,21496.656
0.9480001,09-20-2026 18:37:32:856,-99638.891,5467.997,62006.958,37662.824,36301.2,39919.411,47305.053,21203.401
0.952,09-20-2026 18:37:32:860,-195221.656,-99578.586,36311.705,-86009.244,33613.492,35619.561,51914.43,23696.068
0.956,09-20-2026 18:37:32:864,-271687.868,-218868.773,30559.037,-196760.35,35313.879,35557.244,53955.725,25785.509
0.96,09-20-2026 18:37:32:868,-259398.655,-176137.96,53953.222,-128463.835,39153.461,40168.678,49938.983,24209.264
0.964,09-20-2026 18:37:32:872,-137871.997,-31921.465,75813.362,21050.158,40579.592,43471.461,45592.999,21423.342
0.9680001,09-20-2026 18:37:32:876,-98273.423,7248.447,60856.424,37662.824,36356.051,39919.411,47305.053,21166.744
0.9720001,09-20-2026 18:37:32:880,-193856.188,-99578.586,35544.683,-86009.244,33613.492,35681.878,51980.278,23659.411
0.9760001,09-20-2026 18:37:32:884,-271687.868,-218868.773,29792.014,-196760.35,35313.879,35557.244,53955.725,25748.852
0.98,09-20-2026 18:37:32:888,-259398.655,-176137.96,54336.733,-128463.835,39153.461,40106.361,50004.831,24172.607
0.984,09-20-2026 18:37:32:892,-139237.465,-33701.916,77347.407,19204.306,40579.592,43471.461,45592.999,21423.342
0.988,09-20-2026 18:37:32:896,-98273.423,7248.447,62390.469,37662.824,36356.051,39981.728,47239.205,21130.088
0.992,09-20-2026 18:37:32:900,-192490.72,-97798.136,36311.705,-84163.393,33668.343,35744.194,51914.43,23622.754
0.9960001,09-20-2026 18:37:32:904,-271687.868,-217088.323,29792.014,-194914.498,35259.028,35557.244,53955.725,25712.195
1,09-20-2026 18:37:32:908,-259398.655,-176137.96,52419.177,-128463.835,39153.461,40106.361,50070.679,24172.607
1.004,09-20-2026 18:37:32:912,-138177.545,-33521.269,71411.544,18023.106,40619.11,43483.397,45614.814,21417.71
1.008,09-20-2026 18:37:32:916,-96388.724,8253.695,56179.009,36698.435,36392.663,39989.595,47234.869,21080.958
1.012,09-20-2026 18:37:32:920,-192503.013,-97091.865,31325.925,-86558.74,33667.717,35669.987,51960.027,23625.302
1.016,09-20-2026 18:37:32:924,-270508.813,-218784.15,25713.939,-198610.717,35280.44,35542.939,54052.598,25795.478
1.02,09-20-2026 18:37:32:928,-259365.128,-177009.186,48161.885,-127644.465,39173.22,40116.643,50002.462,24149.138
1.024,09-20-2026 18:37:32:932,-136784.585,-31704.966,67402.982,21758.172,40674.721,43546.92,45547.312,21380.293
1.028,09-20-2026 18:37:32:936,-94995.763,10069.997,53773.872,38565.968,36392.663,39989.595,47234.869,21080.958
1.032,09-20-2026 18:37:32:940,-191110.053,-97091.865,30524.213,-86558.74,33667.717,35669.987,51960.027,23625.302
1.036,09-20-2026 18:37:32:944,-270508.813,-218784.15,25713.939,-198610.717,35280.44,35479.416,54120.1,25832.895
1.04,09-20-2026 18:37:32:948,-259365.128,-177009.186,49765.31,-127644.465,39228.831,40180.166,50002.462,24186.554
1.044,09-20-2026 18:37:32:952,-135391.624,-29888.663,73014.968,21758.172,40730.332,43546.92,45547.312,21380.293
1.048,09-20-2026 18:37:32:956,-93602.803,11886.3,59385.858,38565.968,36392.663,40053.119,47234.869,21080.958
1.052,09-20-2026 18:37:32:960,-189717.092,-95275.562,34131.918,-86558.74,33667.717,35669.987,52027.53,23662.719
1.056,09-20-2026 18:37:32:964,-270508.813,-218784.15,27718.219,-198610.717,35280.44,35479.416,54120.1,25832.895
1.06,09-20-2026 18:37:32:968,-259365.128,-177009.186,50967.878,-129511.998,39228.831,40116.643,50069.964,24223.971
1.064,09-20-2026 18:37:32:972,-136784.585,-31704.966,72213.256,19890.639,40730.332,43546.92,45614.814,21455.127
1.068,09-20-2026 18:37:32:976,-93602.803,11886.3,60187.57,38565.968,36503.886,40116.643,47167.366,21080.958
1.072,09-20-2026 18:37:32:980,-189717.092,-93459.26,36136.199,-86558.74,33667.717,35733.51,51960.027,23662.719
1.076,09-20-2026 18:37:32:984,-270508.813,-218784.15,29321.644,-198610.717,35224.829,35479.416,54120.1,25832.895
1.08,09-20-2026 18:37:32:988,-260758.088,-178825.489,53773.872,-131379.531,39173.22,40053.119,50137.466,24261.388
1.084,09-20-2026 18:37:32:992,-139570.506,-33521.269,76622.674,18023.106,40730.332,43546.92,45614.814,21455.127
1.088,09-20-2026 18:37:32:996,-93602.803,11886.3,59786.714,38565.968,36503.886,40116.643,47167.366,21080.958
1.092,09-20-2026 18:37:33:000,-188324.131,-91642.957,32127.638,-84691.207,33778.94,35860.558,51892.525,23625.302
1.096,09-20-2026 18:37:33:004,-270508.813,-216967.847,25713.939,-194875.651,35224.829,35479.416,54120.1,25832.895
1.1,09-20-2026 18:37:33:008,-260758.088,-178825.489,47761.029,-131379.531,39117.609,39989.595,50204.968,24298.805
1.104,09-20-2026 18:37:33:012,-143795.835,-37885.894,66986.032,13417.126,40673.961,43419.515,45809.498,21586.823
1.108,09-20-2026 18:37:33:016,-96162.48,9289.474,52577.427,36905.278,36607.195,40214.007,47181.984,21142.113
1.112,09-20-2026 18:37:33:020,-187346.332,-90302.97,29935.334,-82342.262,33878.181,35939.996,51756.94,23588.019
1.116,09-20-2026 18:37:33:024,-269003.513,-212609.48,24171.892,-192555.898,35162.423,35437.171,54044.417,25774.512
1.12,09-20-2026 18:37:33:028,-262198.748,-179411.999,45578.962,-132932.127,39015.149,39899.741,50319.096,24366.262
1.124,09-20-2026 18:37:33:032,-146517.741,-39633.13,66574.358,11610.345,40620.451,43356.662,45874.854,21623.882
1.128,09-20-2026 18:37:33:036,-96162.48,9289.474,56282.497,36905.278,36660.705,40214.007,47116.628,21142.113
1.132,09-20-2026 18:37:33:040,-185985.379,-88555.734,33640.404,-78728.7,33931.692,36002.849,51691.583,23550.96
1.136,09-20-2026 18:37:33:044,-269003.513,-210862.244,26641.938,-192555.898,35162.423,35500.024,53979.061,25737.453
1.14,09-20-2026 18:37:33:048,-262198.748,-179411.999,49695.706,-134738.908,38961.639,39836.888,50319.096,24366.262
1.144,09-20-2026 18:37:33:052,-147878.694,-43127.602,70691.102,6190.003,40620.451,43230.956,46005.567,21698.001
1.148,09-20-2026 18:37:33:056,-97523.433,7542.239,57929.195,35098.497,36714.215,40276.86,47116.628,21179.172
1.152,09-20-2026 18:37:33:060,-185985.379,-86808.498,34463.752,-78728.7,33985.202,36065.702,51626.226,23513.901
1.156,09-20-2026 18:37:33:064,-269003.513,-209115.009,27465.287,-192555.898,35108.913,35500.024,53979.061,25737.453
1.16,09-20-2026 18:37:33:068,-262198.748,-179411.999,49284.032,-136545.689,38961.639,39774.035,50384.453,24440.381
1.164,09-20-2026 18:37:33:072,-149239.647,-43127.602,71514.451,4383.222,40620.451,43230.956,46005.567,21772.119
1.168,09-20-2026 18:37:33:076,-97523.433,9289.474,62045.939,35098.497,36767.726,40276.86,47116.628,21179.172
1.172,09-20-2026 18:37:33:080,-184624.426,-86808.498,38992.171,-78728.7,33985.202,36065.702,51626.226,23513.901
1.176,09-20-2026 18:37:33:084,-269003.513,-209115.009,30347.008,-192555.898,35108.913,35437.171,54044.417,25774.512
1.18,09-20-2026 18:37:33:088,-262198.748,-179411.999,52989.102,-136545.689,38961.639,39836.888,50449.809,24477.44
1.184,09-20-2026 18:37:33:092,-147878.694,-43127.602,76454.544,6190.003,40673.961,43293.809,46005.567,21772.119
1.188,09-20-2026 18:37:33:096,-96162.48,9289.474,64104.311,36905.278,36767.726,40339.713,47116.628,21179.172
1.192,09-20-2026 18:37:33:100,-184624.426,-86808.498,36933.799,-78728.7,33985.202,36065.702,51691.583,23588.019
1.196,09-20-2026 18:37:33:104,-269003.513,-212609.48,28700.31,-192555.898,35108.913,35437.171,54109.774,25848.63
1.2,09-20-2026 18:37:33:108,-262198.748,-181159.235,51342.404,-134738.908,39015.149,39836.888,50384.453,24514.499
1.204,09-20-2026 18:37:33:112,-146314.922,-41954.269,73427.358,9389.878,40756.26,43369.045,45918.664,21757.903
1.208,09-20-2026 18:37:33:116,-94393.16,10942.922,62038.787,36541.884,36736.299,40276.1,47087.034,21117.258
1.212,09-20-2026 18:37:33:120,-184573.061,-87798.502,36690.031,-79306.672,33949.126,36046.971,51695.606,23604.47
1.216,09-20-2026 18:37:33:124,-267921.152,-212988.521,28240.446,-193345.093,35074.715,35352.637,54162.166,25865.573
1.22,09-20-2026 18:37:33:128,-262455.703,-183013.446,51017.588,-135420.815,39041.077,39834.251,50462.326,24508.911
1.224,09-20-2026 18:37:33:132,-147681.284,-41954.269,72692.612,9389.878,40756.26,43369.045,45918.664,21757.903
1.228,09-20-2026 18:37:33:136,-94393.16,10942.922,58732.427,36541.884,36789.898,40339.221,47022.125,21117.258
1.232,09-20-2026 18:37:33:140,-183206.699,-86035.262,34118.418,-79306.672,33949.126,36046.971,51630.697,23566.785
1.236,09-20-2026 18:37:33:144,-267921.152,-212988.521,26770.953,-193345.093,35021.116,35352.637,54162.166,25827.888
1.24,09-20-2026 18:37:33:148,-263822.065,-183013.446,49548.095,-135420.815,38987.477,39771.129,50462.326,24508.911
1.244,09-20-2026 18:37:33:152,-150414.008,-45480.748,70120.999,5769.611,40756.26,43305.924,45983.573,21757.903
1.248,09-20-2026 18:37:33:156,-94393.16,10942.922,57630.307,36541.884,36843.498,40402.343,47022.125,21079.573
1.252,09-20-2026 18:37:33:160,-181840.337,-82508.782,34485.791,-75686.404,34056.325,36173.214,51565.787,23416.045
1.256,09-20-2026 18:37:33:164,-267921.152,-207698.802,26770.953,-187914.692,35074.715,35352.637,54097.257,25677.148
1.26,09-20-2026 18:37:33:168,-263822.065,-183013.446,48078.602,-135420.815,38880.278,39644.887,50592.145,24433.541
1.264,09-20-2026 18:37:33:172,-154513.094,-49007.228,70488.372,2149.344,40649.061,43179.681,46178.302,21795.588
1.268,09-20-2026 18:37:33:176,-97125.885,7416.443,60201.92,34731.75,36950.697,40402.343,47087.034,21079.573
1.272,09-20-2026 18:37:33:180,-181840.337,-82508.782,35955.284,-73876.271,34163.524,36299.457,51435.968,23340.675
1.276,09-20-2026 18:37:33:184,-266554.79,-205935.562,27138.326,-186104.558,35021.116,35415.758,54032.347,25564.092
1.28,09-20-2026 18:37:33:188,-265188.428,-183013.446,48445.976,-137230.949,38826.679,39581.765,50657.055,24433.541
1.284,09-20-2026 18:37:33:192,-158612.181,-52533.707,69018.879,-3281.057,40595.462,43053.438,46308.121,21870.958
1.288,09-20-2026 18:37:33:196,-99858.609,5653.203,58732.427,32921.616,37004.296,40465.464,47087.034,21079.573
1.292,09-20-2026 18:37:33:200,-180473.975,-80745.543,36690.031,-72066.137,34270.723,36362.578,51306.15,23265.305
1.296,09-20-2026 18:37:33:204,-266554.79,-200645.843,27505.699,-182484.291,35021.116,35415.758,53902.528,25488.722
1.3,09-20-2026 18:37:33:208,-265188.428,-181250.206,47711.229,-135420.815,38773.079,39518.644,50657.055,24433.541
1.304,09-20-2026 18:37:33:212,-159528.245,-54395.965,69332.25,-4039.586,40587.013,42963.048,46407.899,21895.009
1.308,09-20-2026 18:37:33:216,-100521.606,5261.511,60377.963,32196.168,37054.722,40481.11,47092.399,21064.239
1.312,09-20-2026 18:37:33:220,-179644.144,-79963.455,37303.452,-71075.731,34301.613,36447.962,51323.852,23231.464
1.316,09-20-2026 18:37:33:224,-265471.982,-200982.908,28004.769,-181594.781,35028.849,35455.186,53937.397,25470.93
1.32,09-20-2026 18:37:33:228,-264130.922,-182233.415,47290.927,-138111.876,38768.922,39488.335,50701.58,24459.559
1.324,09-20-2026 18:37:33:232,-160869.305,-54395.965,67954.668,-5851.374,40587.013,42963.048,46407.899,21931.129
1.328,09-20-2026 18:37:33:236,-100521.606,5261.511,59344.776,34007.956,37106.667,40481.11,47092.399,21064.239
1.332,09-20-2026 18:37:33:240,-179644.144,-78258.956,36614.661,-69263.943,34301.613,36447.962,51323.852,23231.464
1.336,09-20-2026 18:37:33:244,-265471.982,-200982.908,26971.582,-183406.569,34976.904,35455.186,53937.397,25470.93
1.34,09-20-2026 18:37:33:248,-265471.982,-182233.415,46602.135,-141735.451,38716.976,39488.335,50701.58,24459.559
1.344,09-20-2026 18:37:33:252,-160869.305,-54395.965,68987.855,-5851.374,40587.013,42963.048,46407.899,21931.129
1.348,09-20-2026 18:37:33:256,-99180.546,5261.511,61066.754,35819.743,37054.722,40543.159,47030.171,21064.239
1.352,09-20-2026 18:37:33:260,-179644.144,-78258.956,37992.244,-69263.943,34145.777,36385.913,51323.852,23195.344
1.356,09-20-2026 18:37:33:264,-265471.982,-204391.906,27660.373,-187030.144,34873.013,35331.09,54061.851,25507.051
1.36,09-20-2026 18:37:33:268,-265471.982,-183937.914,48324.114,-141735.451,38716.976,39488.335,50701.58,24531.799
1.364,09-20-2026 18:37:33:272,-158187.185,-52691.466,70365.437,-2227.798,40638.958,43087.145,46283.444,21967.25
1.368,09-20-2026 18:37:33:276,-96498.426,10375.009,61411.15,39443.319,36950.831,40481.11,46905.717,20991.998
1.372,09-20-2026 18:37:33:280,-178303.084,-78258.956,37647.848,-69263.943,34041.886,36323.865,51323.852,23195.344
1.376,09-20-2026 18:37:33:284,-265471.982,-206096.406,27315.977,-188841.932,34769.122,35206.993,54061.851,25543.171
1.38,09-20-2026 18:37:33:288,-265471.982,-185642.414,48324.114,-143547.239,38716.976,39426.287,50701.58,24531.799
1.384,09-20-2026 18:37:33:292,-158187.185,-52691.466,70365.437,-2227.798,40638.958,43087.145,46221.217,21931.129
1.388,09-20-2026 18:37:33:296,-95157.366,10375.009,61066.754,41255.106,36950.831,40543.159,46843.49,20955.878
1.392,09-20-2026 18:37:33:300,-176962.024,-78258.956,36614.661,-67452.156,34041.886,36261.816,51386.079,23195.344
1.396,09-20-2026 18:37:33:304,-265471.982,-206096.406,26627.186,-188841.932,34717.177,35206.993,54124.079,25543.171
1.4,09-20-2026 18:37:33:308,-265471.982,-187346.913,47290.927,-143547.239,38716.976,39426.287,50763.807,24567.92
1.404,09-20-2026 18:37:33:312,-157672.558,-53225.181,71768.143,-1496.36,40677.85,43076.774,46221.306,21913.606
1.408,09-20-2026 18:37:33:316,-93861.144,12230.383,63682.981,42717.179,36948.462,40505.295,46852.967,20911.8
1.412,09-20-2026 18:37:33:320,-176680.213,-77340.389,39427.494,-67816.668,34059.499,36240.403,51400.921,23175.138
1.416,09-20-2026 18:37:33:324,-266287.731,-206529.001,28402.272,-189403.899,34742.345,35111.461,54180.226,25549.787
1.42,09-20-2026 18:37:33:328,-266287.731,-187581.338,49350.193,-145190.361,38681.84,39376.353,50769.261,24547.982
1.424,09-20-2026 18:37:33:332,-159030.248,-53225.181,72503.158,-1496.36,40677.85,43076.774,46221.306,21913.606
1.428,09-20-2026 18:37:33:336,-93861.144,12230.383,64050.488,44559.41,37000.988,40505.295,46789.801,20837.593
1.432,09-20-2026 18:37:33:340,-176680.213,-77340.389,38692.479,-65974.437,34059.499,36303.122,51337.755,23100.93
1.436,09-20-2026 18:37:33:344,-264930.041,-206529.001,27667.258,-189403.899,34689.818,35111.461,54180.226,25512.683
1.44,09-20-2026 18:37:33:348,-266287.731,-187581.338,47512.656,-145190.361,38681.84,39376.353,50832.427,24547.982
1.444,09-20-2026 18:37:33:352,-160387.937,-54947.696,68093.07,-3338.591,40677.85,43076.774,46284.472,21913.606
1.448,09-20-2026 18:37:33:356,-95218.834,10507.868,58170.37,40874.948,37000.988,40568.014,46852.967,20874.696
1.452,09-20-2026 18:37:33:360,-176680.213,-75617.874,34649.898,-67816.668,34059.499,36303.122,51337.755,23100.93
1.456,09-20-2026 18:37:33:364,-264930.041,-206529.001,25829.721,-189403.899,34689.818,35111.461,54180.226,25475.58
1.46,09-20-2026 18:37:33:368,-266287.731,-189303.853,47880.164,-145190.361,38681.84,39376.353,50832.427,24547.982
1.464,09-20-2026 18:37:33:372,-161745.627,-54947.696,72135.651,-3338.591,40677.85,43076.774,46284.472,21913.606
1.468,09-20-2026 18:37:33:376,-93861.144,12230.383,64417.996,42717.179,37053.515,40568.014,46852.967,20837.593
1.472,09-20-2026 18:37:33:380,-175322.524,-75617.874,39427.494,-65974.437,34112.025,36365.841,51337.755,23063.826
1.476,09-20-2026 18:37:33:384,-264930.041,-206529.001,27299.75,-189403.899,34689.818,35111.461,54243.392,25512.683
1.48,09-20-2026 18:37:33:388,-266287.731,-189303.853,47512.656,-145190.361,38681.84,39313.634,50895.593,24547.982
1.484,09-20-2026 18:37:33:392,-161745.627,-56670.211,70665.621,-3338.591,40730.377,43076.774,46284.472,21950.709
1.488,09-20-2026 18:37:33:396,-93861.144,12230.383,63682.981,44559.41,37106.042,40630.733,46789.801,20837.593
1.492,09-20-2026 18:37:33:400,-175322.524,-73895.359,39427.494,-62289.976,34112.025,36365.841,51337.755,23063.826
1.496,09-20-2026 18:37:33:404,-264930.041,-206529.001,26932.243,-189403.899,34689.818,35111.461,54243.392,25512.683
1.5,09-20-2026 18:37:33:408,-266287.731,-191026.368,45675.119,-147032.591,38734.366,39313.634,50958.759,24585.086
1.504,09-20-2026 18:37:33:412,-162306.164,-57309.202,68727.814,-4135.743,40744.727,43045.526,46364.313,21942.171
1.508,09-20-2026 18:37:33:416,-94043.937,12126.224,60320.385,44724.589,37142.967,40672.397,46796.149,20812.737
1.512,09-20-2026 18:37:33:420,-173228.121,-72551.125,36925.797,-62044.285,34210.105,36425.744,51237.887,22998.738
1.516,09-20-2026 18:37:33:424,-264699.506,-202954.242,25959.584,-185099.937,34673.188,35114.278,54199.046,25439.772
1.52,09-20-2026 18:37:33:428,-267429.995,-191099.413,47160.929,-145287.814,38635.124,39236.029,50991.124,24601.805
1.524,09-20-2026 18:37:33:432,-165036.653,-60696.296,71286.597,-4135.743,40744.727,42983.075,46426.004,21978.604
1.528,09-20-2026 18:37:33:436,-95409.181,12126.224,64341.329,44724.589,37194.42,40672.397,46796.149,20812.737
1.532,09-20-2026 18:37:33:440,-173228.121,-70857.578,40215.661,-60234.643,34261.559,36488.195,51176.196,22962.305
1.536,09-20-2026 18:37:33:444,-263334.261,-201260.695,27787.286,-183290.295,34673.188,35114.278,54137.356,25403.339
1.54,09-20-2026 18:37:33:448,-267429.995,-191099.413,45333.227,-145287.814,38583.671,39173.578,51052.815,24601.805
1.544,09-20-2026 18:37:33:452,-169132.387,-64083.39,64706.87,-7755.027,40693.273,42858.174,46549.385,22015.038
1.548,09-20-2026 18:37:33:456,-98139.67,8739.13,57761.602,42914.947,37297.328,40672.397,46796.149,20849.171
1.552,09-20-2026 18:37:33:460,-171862.876,-70857.578,35829.176,-56615.359,34364.466,36550.645,51114.506,22925.871
1.556,09-20-2026 18:37:33:464,-263334.261,-197873.601,24862.963,-181480.653,34724.642,35176.728,54075.665,25330.472
1.56,09-20-2026 18:37:33:468,-267429.995,-189405.866,42774.444,-148907.098,38532.217,39111.127,51114.506,24565.372
1.564,09-20-2026 18:37:33:472,-170497.631,-65776.937,63244.708,-14993.595,40641.819,42795.723,46672.767,22051.471
1.568,09-20-2026 18:37:33:476,-98139.67,7045.583,57761.602,41105.305,37348.782,40672.397,46796.149,20849.171
1.572,09-20-2026 18:37:33:480,-171862.876,-69164.031,36560.257,-56615.359,34415.92,36613.096,51052.815,22853.005
1.576,09-20-2026 18:37:33:484,-261969.016,-196180.054,25594.044,-179671.011,34673.188,35114.278,54013.974,25257.605
1.58,09-20-2026 18:37:33:488,-267429.995,-189405.866,45698.767,-148907.098,38532.217,39048.676,51114.506,24565.372
1.584,09-20-2026 18:37:33:492,-170497.631,-64083.39,67996.734,-13183.953,40641.819,42795.723,46672.767,22051.471
1.588,09-20-2026 18:37:33:496,-98139.67,8739.13,60320.385,41105.305,37348.782,40672.397,46796.149,20812.737
1.592,09-20-2026 18:37:33:500,-170497.631,-69164.031,37291.338,-58425.001,34415.92,36550.645,51052.815,22816.571
1.596,09-20-2026 18:37:33:504,-261969.016,-197873.601,25959.584,-181480.653,34673.188,35114.278,54137.356,25221.172
1.6,09-20-2026 18:37:33:508,-267429.995,-189405.866,46064.308,-150716.74,38532.217,39048.676,51114.506,24492.505
1.604,09-20-2026 18:37:33:512,-170930.182,-64674.817,69345.438,-15015.231,40653.8,42764.654,46651.488,21972.882
1.608,09-20-2026 18:37:33:516,-96966.651,10289.983,63463.889,42656.293,37392.412,40741.374,46781.039,20715.463
1.612,09-20-2026 18:37:33:520,-169507.807,-68244.57,40305.291,-55385.298,34451.817,36629.547,51056.212,22758.77
1.616,09-20-2026 18:37:33:524,-261962.221,-196755.656,27439.404,-180340.267,34665.678,35063.137,54165.429,25195.02
1.62,09-20-2026 18:37:33:528,-267651.724,-189616.151,46186.84,-147659.737,38568.65,39044.43,51185.763,24487.722
1.624,09-20-2026 18:37:33:532,-170930.182,-64674.817,67507.454,-13092.847,40707.265,42764.654,46651.488,21972.882
1.628,09-20-2026 18:37:33:536,-95544.275,10289.983,60523.115,42656.293,37392.412,40741.374,46781.039,20676.168
1.632,09-20-2026 18:37:33:540,-169507.807,-68244.57,38834.904,-57307.682,34398.351,36564.28,51056.212,22719.475
1.636,09-20-2026 18:37:33:544,-261962.221,-198540.532,27071.807,-180340.267,34612.213,34997.87,54165.429,25116.432
1.64,09-20-2026 18:37:33:548,-267651.724,-191401.028,46186.84,-147659.737,38568.65,38979.162,51185.763,24330.544
1.644,09-20-2026 18:37:33:552,-168085.431,-62889.941,68242.647,-9248.079,40814.196,42829.921,46521.937,21658.527
1.648,09-20-2026 18:37:33:556,-91277.148,13859.736,61625.905,48423.445,37338.947,40676.107,46651.488,20479.696
1.652,09-20-2026 18:37:33:560,-169507.807,-68244.57,37732.114,-57307.682,34237.955,36433.746,51185.763,22758.77
1.656,09-20-2026 18:37:33:564,-261962.221,-203895.161,25233.823,-189952.188,34505.282,34867.336,54424.531,25312.904
1.66,09-20-2026 18:37:33:568,-267651.724,-194970.78,45819.243,-153426.889,38675.581,39044.43,51185.763,24409.133
1.664,09-20-2026 18:37:33:572,-165240.68,-59320.189,70080.631,-7325.695,40974.592,43025.722,46327.611,21619.233
1.668,09-20-2026 18:37:33:576,-88432.397,19214.364,60890.712,50345.829,37338.947,40741.374,46586.713,20401.108
1.672,09-20-2026 18:37:33:580,-168085.431,-68244.57,35158.936,-57307.682,34184.49,36303.212,51250.538,22798.064
1.676,09-20-2026 18:37:33:584,-263384.597,-207464.913,23395.839,-191874.572,34505.282,34736.801,54489.306,25352.198
1.68,09-20-2026 18:37:33:588,-267651.724,-196755.656,43981.259,-153426.889,38729.046,39044.43,51185.763,24409.133
1.684,09-20-2026 18:37:33:592,-163818.304,-59320.189,67507.454,-5403.311,40974.592,43025.722,46327.611,21579.939
1.688,09-20-2026 18:37:33:596,-87010.021,19214.364,61258.308,52268.213,37338.947,40741.374,46521.937,20401.108
1.692,09-20-2026 18:37:33:600,-168085.431,-66459.693,35526.533,-57307.682,34184.49,36303.212,51250.538,22798.064
1.696,09-20-2026 18:37:33:604,-261962.221,-207464.913,23395.839,-191874.572,34451.817,34736.801,54554.082,25391.492
1.7,09-20-2026 18:37:33:608,-267651.724,-196755.656,46186.84,-155349.273,38729.046,39109.697,51185.763,24448.427
1.704,09-20-2026 18:37:33:612,-164778.044,-59918.008,71739.935,-6834.046,41048.308,43106.099,46323.946,21607.387
1.708,09-20-2026 18:37:33:616,-85556.532,21025.034,63772.03,53027.323,37397.24,40787.329,46520.015,20372.632
1.712,09-20-2026 18:37:33:620,-167658.826,-67112.946,38190.861,-57040.355,34182.12,36282.29,51225.683,22802.311
1.716,09-20-2026 18:37:33:624,-262724.64,-207414.22,25190.595,-192211.189,34400.095,34692.277,54558.865,25431.144
1.72,09-20-2026 18:37:33:628,-268486.204,-198420.548,46997.493,-155521.963,38759.579,39064.814,51225.683,24475.205
1.724,09-20-2026 18:37:33:632,-164778.044,-59918.008,72998.026,-6834.046,41048.308,43106.099,46323.946,21607.387
1.728,09-20-2026 18:37:33:636,-85556.532,21025.034,67546.301,53027.323,37397.24,40853.58,46520.015,20372.632
1.732,09-20-2026 18:37:33:640,-166218.435,-65314.211,41126.405,-55109.344,34182.12,36348.541,51225.683,22802.311
1.736,09-20-2026 18:37:33:644,-262724.64,-207414.22,26868.049,-192211.189,34454.588,34692.277,54624.221,25431.144
1.74,09-20-2026 18:37:33:648,-268486.204,-198420.548,48674.947,-153590.951,38759.579,39064.814,51225.683,24515.036
1.744,09-20-2026 18:37:33:652,-164778.044,-59918.008,74256.116,-4903.034,41102.802,43106.099,46323.946,21647.217
1.748,09-20-2026 18:37:33:656,-85556.532,21025.034,68804.391,53027.323,37397.24,40853.58,46454.659,20372.632
1.752,09-20-2026 18:37:33:660,-166218.435,-65314.211,42803.859,-57040.355,34182.12,36414.792,51291.04,22802.311
1.756,09-20-2026 18:37:33:664,-261284.248,-207414.22,27706.775,-192211.189,34400.095,34692.277,54624.221,25431.144
1.76,09-20-2026 18:37:33:668,-268486.204,-200219.283,48255.583,-153590.951,38759.579,39064.814,51291.04,24515.036
1.764,09-20-2026 18:37:33:672,-166218.435,-59918.008,70901.209,-4903.034,41102.802,43106.099,46323.946,21647.217
1.768,09-20-2026 18:37:33:676,-85556.532,21025.034,61255.85,53027.323,37451.734,40853.58,46454.659,20372.632
1.772,09-20-2026 18:37:33:680,-166218.435,-65314.211,36094.044,-57040.355,34236.614,36414.792,51225.683,22802.311
1.776,09-20-2026 18:37:33:684,-261284.248,-207414.22,23513.141,-192211.189,34345.601,34692.277,54624.221,25431.144
1.78,09-20-2026 18:37:33:688,-268486.204,-200219.283,45320.039,-153590.951,38759.579,38998.564,51291.04,24515.036
1.784,09-20-2026 18:37:33:692,-167658.826,-61716.743,70062.482,-6834.046,41102.802,43106.099,46389.302,21687.048
1.788,09-20-2026 18:37:33:696,-85556.532,21025.034,61675.213,53027.323,37506.227,40919.83,46454.659,20372.632
1.792,09-20-2026 18:37:33:700,-164778.044,-63515.477,32739.137,-55109.344,34236.614,36414.792,51225.683,22762.48
1.796,09-20-2026 18:37:33:704,-261284.248,-207414.22,20996.961,-190280.177,34400.095,34692.277,54624.221,25431.144
1.8,09-20-2026 18:37:33:708,-268486.204,-200219.283,42803.859,-155521.963,38759.579,38998.564,51356.396,24554.866
1.804,09-20-2026 18:37:33:712,-168226.292,-64069.8,65813.46,-7924.23,41092.565,43044.185,46457.699,21718.43
1.808,09-20-2026 18:37:33:716,-85777.457,21102.148,57917.438,52962.637,37516.375,40944.194,46457.699,20380.902
1.812,09-20-2026 18:37:33:720,-163886.88,-62295.385,33101.369,-53589.38,34313.817,36481.713,51124.296,22741.246
1.816,09-20-2026 18:37:33:724,-260800.423,-204248.632,20693.334,-188682.117,34367.193,34709.845,54576.299,25376.964
1.82,09-20-2026 18:37:33:728,-269479.247,-200699.8,40621.39,-154433.254,38690.646,38975.452,51380,24550.843
1.824,09-20-2026 18:37:33:732,-168226.292,-62295.385,61301.447,-7924.23,41092.565,43044.185,46457.699,21718.43
1.828,09-20-2026 18:37:33:736,-85777.457,21102.148,51149.419,52962.637,37516.375,40944.194,46457.699,20380.902
1.832,09-20-2026 18:37:33:740,-163886.88,-62295.385,27837.354,-53589.38,34313.817,36547.337,51124.296,22741.246
1.836,09-20-2026 18:37:33:744,-260800.423,-202474.216,18061.327,-186779.402,34313.817,34709.845,54576.299,25337.625
1.84,09-20-2026 18:37:33:748,-269479.247,-198925.385,37989.383,-154433.254,38637.27,38909.827,51443.926,24590.182
1.844,09-20-2026 18:37:33:752,-172565.704,-65844.216,59797.443,-11729.659,40985.813,42912.935,46585.55,21757.769
1.848,09-20-2026 18:37:33:756,-88670.398,19327.732,54533.428,52962.637,37569.751,40944.194,46521.625,20420.241
1.852,09-20-2026 18:37:33:760,-162440.409,-58746.554,33101.369,-47881.236,34473.945,36744.212,50932.518,22701.907
1.856,09-20-2026 18:37:33:764,-259353.952,-191827.722,21069.335,-177265.829,34420.569,34906.719,54192.743,25140.929
1.86,09-20-2026 18:37:33:768,-269479.247,-193602.138,38741.385,-154433.254,38370.39,38778.578,51507.852,24550.843
1.864,09-20-2026 18:37:33:772,-179798.058,-72941.878,59045.441,-23145.947,40718.933,42584.812,47033.032,21993.804
1.868,09-20-2026 18:37:33:776,-97349.223,10455.654,54533.428,43449.064,37676.503,40944.194,46713.402,20616.936
1.872,09-20-2026 18:37:33:780,-163886.88,-60520.969,33101.369,-47881.236,34634.073,36875.461,50804.666,22662.568
1.876,09-20-2026 18:37:33:784,-257907.481,-190053.307,21069.335,-175363.115,34420.569,34972.344,54192.743,25101.59
1.88,09-20-2026 18:37:33:788,-269479.247,-195376.554,38365.384,-154433.254,38370.39,38778.578,51571.778,24550.843
1.884,09-20-2026 18:37:33:792,-181244.529,-74716.294,56789.435,-21243.232,40718.933,42584.812,47033.032,21993.804
1.888,09-20-2026 18:37:33:796,-97349.223,10455.654,50397.417,45351.779,37729.879,40944.194,46649.476,20616.936
1.892,09-20-2026 18:37:33:800,-162440.409,-58746.554,31221.364,-45978.522,34687.449,36941.086,50804.666,22662.568
1.896,09-20-2026 18:37:33:804,-257907.481,-188278.891,20317.333,-171557.685,34420.569,35037.969,54128.817,25062.251
1.9,09-20-2026 18:37:33:808,-269479.247,-193602.138,37613.381,-152530.539,38317.014,38712.953,51571.778,24550.843
1.904,09-20-2026 18:37:33:812,-183008.573,-76776.32,57008.258,-24044.129,40605.118,42454.635,47158.068,22081.467
1.908,09-20-2026 18:37:33:816,-100702.655,6467.656,51637.715,41239.058,37740.518,40969.228,46760.654,20692.172
1.912,09-20-2026 18:37:33:820,-163095.851,-58277.659,31851.504,-45261.165,34780.432,37027.185,50734.794,22623.631
1.916,09-20-2026 18:37:33:824,-257349.403,-183143.623,21110.418,-166035.061,34541.715,35198.991,53970.88,24995.598
1.92,09-20-2026 18:37:33:828,-269297.036,-189309.843,36939.387,-149714.264,38265.695,38741.116,51586.396,24555.09
1.924,09-20-2026 18:37:33:832,-185663.603,-78317.875,54464.317,-27308.288,40461.888,42340.373,47328.388,22149.238
1.928,09-20-2026 18:37:33:836,-106012.715,1842.991,48528.454,36342.819,37692.775,40912.097,46930.974,20793.828
1.932,09-20-2026 18:37:33:840,-165750.881,-59819.214,31568.844,-45261.165,34923.662,37198.578,50734.794,22691.402
1.936,09-20-2026 18:37:33:844,-256021.888,-176977.402,21675.738,-159506.742,34637.202,35370.384,53687.013,24860.057
1.94,09-20-2026 18:37:33:848,-269297.036,-183143.623,37222.047,-146450.105,38170.208,38683.985,51472.849,24487.32
1.944,09-20-2026 18:37:33:852,-186991.118,-79859.43,54464.317,-30572.448,40270.914,42111.849,47498.709,22250.893
1.948,09-20-2026 18:37:33:856,-109995.259,-2781.675,49093.774,33078.66,37740.518,40854.966,47044.521,20963.254
1.952,09-20-2026 18:37:33:860,-167078.396,-61360.769,31003.524,-45261.165,35019.149,37255.709,50678.021,22691.402
1.956,09-20-2026 18:37:33:864,-256021.888,-175435.847,21393.078,-157874.663,34732.689,35427.515,53687.013,24826.172
1.96,09-20-2026 18:37:33:868,-269297.036,-183143.623,37222.047,-144818.025,38170.208,38683.985,51529.622,24521.205
1.964,09-20-2026 18:37:33:872,-186991.118,-79859.43,55029.637,-30572.448,40270.914,42111.849,47555.482,22318.664
1.968,09-20-2026 18:37:33:876,-109995.259,-2781.675,50224.414,31446.58,37788.262,40854.966,47044.521,20963.254
1.972,09-20-2026 18:37:33:880,-165750.881,-59819.214,31851.504,-45261.165,35019.149,37255.709,50621.247,22657.516
1.976,09-20-2026 18:37:33:884,-256021.888,-173894.292,21675.738,-157874.663,34684.945,35427.515,53630.239,24792.287
1.98,09-20-2026 18:37:33:888,-269297.036,-183143.623,37222.047,-146450.105,38074.721,38626.854,51529.622,24487.32
1.984,09-20-2026 18:37:33:892,-188318.633,-81400.985,57008.258,-33836.607,40270.914,42054.718,47555.482,22318.664
1.988,09-20-2026 18:37:33:896,-108667.744,-1240.119,55312.297,31446.58,37788.262,40912.097,46987.748,20929.369
1.992,09-20-2026 18:37:33:900,-164423.366,-59819.214,36374.067,-45261.165,35019.149,37255.709,50621.247,22623.631
1.996,09-20-2026 18:37:33:904,-254694.373,-173894.292,24502.34,-157874.663,34637.202,35427.515,53687.013,24792.287
2,09-20-2026 18:37:33:908,-269297.036,-186226.733,40331.309,-148082.185,38074.721,38626.854,51586.396,24588.975
2.004,09-20-2026 18:37:33:912,-188807.063,-82545.484,59888.862,-34373.362,40279.319,42084.535,47561.07,22400.561
2.008,09-20-2026 18:37:33:916,-108366.443,-653.341,57006.381,31415.645,37852.456,41004.499,46954.265,20963.165
2.012,09-20-2026 18:37:33:920,-162858.476,-58281.145,37117.262,-45083.2,35005.559,37332.375,50595.096,22619.295
2.016,09-20-2026 18:37:33:924,-254975.96,-175053.275,24722.594,-158301.492,34585.525,35388.31,53739.45,24806.637
2.02,09-20-2026 18:37:33:928,-270545.113,-187185.444,38270.255,-149121.63,38085.808,38574.417,51643.214,24619.15
2.024,09-20-2026 18:37:33:932,-190104.492,-84062.005,56718.133,-35903.339,40325.989,42138.537,47616.234,22431.808
2.028,09-20-2026 18:37:33:936,-107069.013,-653.341,54412.148,32945.622,37899.126,41004.499,46899.101,20931.917
2.032,09-20-2026 18:37:33:940,-161561.046,-56764.624,35964.27,-43553.223,35052.229,37332.375,50595.096,22619.295
2.036,09-20-2026 18:37:33:944,-254975.96,-175053.275,24146.098,-159831.468,34538.854,35334.308,53794.614,24837.884
2.04,09-20-2026 18:37:33:948,-270545.113,-188701.965,39423.247,-150651.607,38085.808,38574.417,51753.542,24681.646
2.044,09-20-2026 18:37:33:952,-191401.922,-85578.526,60753.606,-35903.339,40372.66,42138.537,47561.07,22431.808
2.048,09-20-2026 18:37:33:956,-105771.584,863.18,59888.862,34475.599,37945.797,41058.501,46843.937,20900.669
2.052,09-20-2026 18:37:33:960,-160263.617,-55248.103,39999.743,-43553.223,35052.229,37332.375,50595.096,22588.047
2.056,09-20-2026 18:37:33:964,-253678.531,-175053.275,25875.586,-159831.468,34492.184,35280.306,53849.778,24869.132
2.06,09-20-2026 18:37:33:968,-270545.113,-191735.007,40287.991,-153711.561,38085.808,38520.415,51808.706,24744.141
2.064,09-20-2026 18:37:33:972,-192699.351,-87095.047,60753.606,-37433.316,40419.33,42138.537,47616.234,22494.304
2.068,09-20-2026 18:37:33:976,-105771.584,863.18,59312.366,34475.599,38039.137,41166.504,46843.937,20900.669
2.072,09-20-2026 18:37:33:980,-160263.617,-53731.582,38846.751,-42023.247,35052.229,37386.377,50539.932,22556.799
2.076,09-20-2026 18:37:33:984,-253678.531,-175053.275,25010.842,-159831.468,34492.184,35280.306,53849.778,24837.884
2.08,09-20-2026 18:37:33:988,-270545.113,-191735.007,39999.743,-153711.561,38085.808,38466.413,51863.87,24744.141
2.084,09-20-2026 18:37:33:992,-193996.78,-88611.569,60753.606,-37433.316,40419.33,42138.537,47671.398,22494.304
2.088,09-20-2026 18:37:33:996,-105771.584,863.18,59888.862,34475.599,38085.808,41166.504,46843.937,20900.669
2.092,09-20-2026 18:37:34:000,-158966.188,-53731.582,39999.743,-40493.27,35098.9,37386.377,50539.932,22556.799
2.096,09-20-2026 18:37:34:004,-253678.531,-173536.753,26163.834,-158301.492,34538.854,35334.308,53794.614,24806.637
2.1,09-20-2026 18:37:34:008,-270545.113,-188701.965,40287.991,-150651.607,38085.808,38520.415,51808.706,24556.655
2.104,09-20-2026 18:37:34:012,-193203.204,-87084.721,60220.919,-37930.776,40337.523,42024.185,47705.418,22260.46
2.108,09-20-2026 18:37:34:016,-109915.508,-3186.822,59698.961,30597.527,38008.292,41044.866,46965.664,20779.702
2.112,09-20-2026 18:37:34:020,-161654.834,-56707.896,40386.518,-42304.923,35141.547,37436.847,50558.752,22441.777
2.116,09-20-2026 18:37:34:024,-253776.074,-170982.62,27076.59,-154574.696,34648.825,35478.209,53676.284,24617.585
2.12,09-20-2026 18:37:34:028,-270181.226,-186894.29,40908.476,-150200.549,38053.085,38519.253,51774.061,24496.707
2.124,09-20-2026 18:37:34:032,-195727.074,-89977.752,59959.94,-40846.874,40247.937,41921.099,47863.936,22381.338
2.128,09-20-2026 18:37:34:036,-112439.378,-6079.853,59437.982,29139.478,38097.878,41044.866,47018.504,20870.36
2.132,09-20-2026 18:37:34:040,-162916.769,-56707.896,40647.497,-42304.923,35186.34,37488.391,50505.912,22441.777
2.136,09-20-2026 18:37:34:044,-252514.139,-168089.589,27337.569,-151658.598,34648.825,35529.752,53623.444,24587.366
2.14,09-20-2026 18:37:34:048,-270181.226,-186894.29,40386.518,-148742.5,38008.292,38467.71,51774.061,24496.707
2.144,09-20-2026 18:37:34:052,-198250.943,-91424.267,59437.982,-42304.923,40203.144,41818.013,47969.615,22441.777
2.148,09-20-2026 18:37:34:056,-114963.247,-7526.369,58655.045,27681.429,38053.085,40993.323,47071.343,20930.799
2.152,09-20-2026 18:37:34:060,-162916.769,-56707.896,40125.539,-40846.874,35231.133,37539.934,50453.073,22441.777
2.156,09-20-2026 18:37:34:064,-252514.139,-165196.558,27337.569,-148742.5,34648.825,35581.295,53464.926,24526.927
2.16,09-20-2026 18:37:34:068,-270181.226,-185447.775,39864.56,-148742.5,37873.913,38416.167,51826.9,24466.488
2.164,09-20-2026 18:37:34:072,-200774.813,-94317.298,58394.066,-45221.021,40068.765,41714.927,48075.294,22471.997
2.168,09-20-2026 18:37:34:076,-118749.052,-11865.915,58394.066,26223.38,38053.085,40993.323,47124.183,20991.238
2.172,09-20-2026 18:37:34:080,-162916.769,-56707.896,40386.518,-37930.776,35320.718,37643.02,50400.233,22441.777
2.176,09-20-2026 18:37:34:084,-251252.204,-160857.011,27859.527,-144368.353,34648.825,35684.381,53359.247,24436.268
2.18,09-20-2026 18:37:34:088,-270181.226,-182554.744,39342.602,-145826.402,37784.328,38313.08,51826.9,24436.268
2.184,09-20-2026 18:37:34:092,-203298.682,-95763.814,56567.214,-48137.119,39844.801,41508.754,48233.813,22532.436
2.188,09-20-2026 18:37:34:096,-123796.791,-16205.462,56045.256,21849.233,38008.292,40890.237,47282.701,21081.897
2.192,09-20-2026 18:37:34:100,-164178.704,-56707.896,39864.56,-36472.727,35410.304,37694.563,50294.554,22411.558
2.196,09-20-2026 18:37:34:104,-249990.27,-155070.949,28381.485,-138536.157,34783.204,35839.011,53147.889,24315.39
2.2,09-20-2026 18:37:34:108,-270181.226,-176768.682,39603.581,-144368.353,37649.949,38261.537,51774.061,24375.829
2.204,09-20-2026 18:37:34:112,-205487.857,-98423.672,56552.506,-53769.848,39629.017,41220.461,48449.507,22594.619
2.208,09-20-2026 18:37:34:116,-130589.039,-23502.412,57195.968,14192.33,38012.181,40774.455,47475.82,21210.062
2.212,09-20-2026 18:37:34:120,-165324.723,-58081.455,41109.418,-36779.304,35586.928,37855.138,50227.544,22403.645
2.216,09-20-2026 18:37:34:124,-246736.481,-147986.966,29956.076,-131440.908,34962.241,36071.111,52852.264,24146.277
2.22,09-20-2026 18:37:34:128,-268446.284,-169887.027,39822.494,-139936.181,37497.734,38220.053,51709.241,24241.763
2.224,09-20-2026 18:37:34:132,-210915.308,-103034.211,55480.07,-61051.51,39298.301,40896.093,48788.181,22690.105
2.228,09-20-2026 18:37:34:136,-142529.43,-35028.76,57195.968,2056.226,37938.689,40571.724,47814.494,21448.779
2.232,09-20-2026 18:37:34:140,-168581.193,-61539.359,43683.266,-39206.524,35807.405,38057.868,50100.541,22403.645
2.236,09-20-2026 18:37:34:144,-241309.031,-133002.714,34460.31,-114450.364,35366.45,36598.21,52259.586,23859.817
2.24,09-20-2026 18:37:34:148,-258676.873,-150292.236,41967.367,-124159.247,37387.495,38341.691,51412.901,23955.303
2.244,09-20-2026 18:37:34:152,-208744.327,-100728.941,52477.247,-65905.951,38747.107,40409.54,49211.523,22809.463
2.248,09-20-2026 18:37:34:156,-162068.252,-54623.551,50975.835,-21002.37,37644.719,40044.625,48618.844,21902.34
2.252,09-20-2026 18:37:34:160,-184863.545,-77676.246,42610.829,-52556.238,36064.629,38098.414,50312.212,22666.233
2.256,09-20-2026 18:37:34:164,-239138.051,-130697.445,36605.184,-109595.923,35770.659,37003.671,51878.578,23716.587
2.26,09-20-2026 18:37:34:168,-246736.481,-138765.888,43468.779,-112023.143,37460.987,38544.421,50989.559,23668.843
2.264,09-20-2026 18:37:34:172,-202231.387,-94965.767,53120.709,-61051.51,38526.629,40247.356,49211.523,22690.105
2.268,09-20-2026 18:37:34:176,-167495.703,-59234.09,52691.734,-28284.032,37387.495,39760.803,48915.183,22021.699
2.272,09-20-2026 18:37:34:180,-193547.466,-85744.689,43897.753,-61051.51,36064.629,38017.322,50523.883,22809.463
2.276,09-20-2026 18:37:34:184,-238052.56,-129544.81,38964.544,-107168.702,36027.883,37287.493,51624.572,23668.843
2.28,09-20-2026 18:37:34:188,-233710.6,-124934.271,46042.627,-97459.82,37607.972,38909.336,50523.883,23430.127
2.284,09-20-2026 18:37:34:192,-189205.505,-81134.15,53549.684,-51342.628,38306.151,40247.356,49084.52,22546.875
2.288,09-20-2026 18:37:34:196,-166410.213,-59234.09,51190.323,-33138.473,37056.778,39476.981,49211.523,22188.8
2.292,09-20-2026 18:37:34:200,-200060.406,-91507.863,42610.829,-69546.782,35991.137,37895.684,50777.888,23000.437
2.296,09-20-2026 18:37:34:204,-241309.031,-131850.08,39393.519,-109595.923,36138.122,37368.585,51666.907,23716.587
2.3,09-20-2026 18:37:34:208,-233710.6,-124934.271,46257.114,-97459.82,37644.719,38949.882,50523.883,23406.255
2.304,09-20-2026 18:37:34:212,-190884.389,-82514.862,52429.727,-53632.743,38259.436,40201.624,49159.801,22577.676
2.308,09-20-2026 18:37:34:216,-169906.741,-61780.132,50197.592,-35312.18,37084.226,39470.543,49295.61,22233.012
2.312,09-20-2026 18:37:34:220,-200821.17,-92336.576,42509.129,-70235.752,36096.369,37943.874,50828.314,23025.739
2.316,09-20-2026 18:37:34:224,-240016.251,-131077.782,38664.897,-108021.913,36232.625,37470.822,51623.768,23692.089
2.32,09-20-2026 18:37:34:228,-232839.687,-123984.322,42261.114,-96571.561,37646.283,38954.486,50517.893,23370.403
2.324,09-20-2026 18:37:34:232,-192540.52,-84151.814,47841.45,-54205.26,38208.34,40137.117,49179.202,22554.698
2.328,09-20-2026 18:37:34:236,-172114.914,-63962.735,46105.346,-37029.733,37101.258,39470.543,49353.814,22244.501
2.332,09-20-2026 18:37:34:240,-201925.257,-93427.878,38540.889,-70808.27,36113.401,37965.377,50789.511,23002.761
2.336,09-20-2026 18:37:34:244,-239464.207,-130532.131,36680.777,-107449.395,36266.689,37492.324,51565.564,23646.134
2.34,09-20-2026 18:37:34:248,-231735.6,-122893.02,43749.204,-95426.526,37663.315,38975.989,50517.893,23347.425
2.344,09-20-2026 18:37:34:252,-193092.563,-84151.814,49949.577,-55350.295,38174.276,40094.112,49237.406,22554.698
2.348,09-20-2026 18:37:34:256,-173771.044,-65054.037,47593.435,-38747.285,37101.258,39406.036,49392.617,22255.99
2.352,09-20-2026 18:37:34:260,-203029.344,-94519.179,40525.009,-71380.788,36147.465,37965.377,50789.511,22991.273
2.356,09-20-2026 18:37:34:264,-238912.164,-129440.83,38168.867,-106304.36,36283.721,37513.827,51507.36,23600.179
2.36,09-20-2026 18:37:34:268,-231183.556,-121801.719,44617.256,-94854.009,37612.219,38911.481,50479.09,23301.47
2.364,09-20-2026 18:37:34:272,-193644.606,-84697.465,50445.607,-55350.295,38140.212,40051.107,49276.209,22554.698
2.368,09-20-2026 18:37:34:276,-175427.175,-66690.989,48089.465,-39892.321,37084.226,39384.534,49431.419,22267.478
2.372,09-20-2026 18:37:34:280,-204133.431,-95064.83,41021.039,-71380.788,36164.497,37986.879,50770.11,22968.295
2.376,09-20-2026 18:37:34:284,-238360.12,-128895.179,38292.874,-105159.325,36317.785,37556.832,51468.557,23577.201
2.38,09-20-2026 18:37:34:288,-230079.47,-120710.417,44369.241,-93708.973,37561.123,38911.481,50440.288,23267.004
2.384,09-20-2026 18:37:34:292,-194196.65,-85243.116,50073.585,-56495.331,38038.02,39986.6,49295.61,22543.209
2.388,09-20-2026 18:37:34:296,-177083.305,-68327.942,47841.45,-41037.356,37050.162,39363.031,49489.623,22301.945
2.392,09-20-2026 18:37:34:300,-205237.517,-96156.132,42881.151,-71953.305,36181.529,38008.381,50808.913,22991.273
2.396,09-20-2026 18:37:34:304,-238360.12,-128895.179,41765.084,-104014.29,36334.817,37599.836,51449.156,23531.246
2.4,09-20-2026 18:37:34:308,-231183.556,-121801.719,47097.405,-93136.456,37561.123,38889.979,50459.689,23232.537
2.404,09-20-2026 18:37:34:312,-196243.31,-87386.201,51053.396,-56624.479,38019.066,39937.739,49370.578,22548.797
2.408,09-20-2026 18:37:34:316,-180040.619,-71368.584,47740.867,-42443.638,37086.327,39359.813,49543.67,22328.856
2.412,09-20-2026 18:37:34:320,-206595.028,-97619.679,41226.228,-71750.709,36239.688,38023.357,50755.313,22970.351
2.416,09-20-2026 18:37:34:324,-237200.11,-127875.179,38797.04,-102475.864,36383.186,37644.093,51353.267,23492.712
2.42,09-20-2026 18:37:34:328,-229098.765,-119866.371,44317.921,-92076.581,37574.221,38908.307,50409.129,23190.293
2.424,09-20-2026 18:37:34:332,-195793.235,-86941.267,49286.714,-58042.563,38019.066,39901.619,49386.313,22539.633
2.428,09-20-2026 18:37:34:336,-180040.619,-71368.584,46857.527,-43389.028,37129.377,39323.692,49559.405,22328.856
2.432,09-20-2026 18:37:34:340,-206144.954,-97174.745,40453.305,-72223.404,36340.137,38077.538,50802.52,22988.68
2.436,09-20-2026 18:37:34:344,-235849.885,-126540.378,38355.37,-102475.864,36483.635,37698.273,51369.003,23474.383
2.44,09-20-2026 18:37:34:348,-227748.54,-118531.569,44207.504,-92549.275,37617.271,38926.368,50440.601,23181.128
2.444,09-20-2026 18:37:34:352,-195343.16,-86496.334,49507.549,-59460.647,38033.415,39883.559,49433.52,22557.962
2.448,09-20-2026 18:37:34:356,-180940.769,-72258.451,47409.615,-45752.501,37158.076,39323.692,49638.084,22356.349
2.452,09-20-2026 18:37:34:360,-206144.954,-97619.679,40563.722,-73641.488,36397.536,38113.658,50833.991,23007.008
2.456,09-20-2026 18:37:34:364,-234949.736,-125650.51,37803.282,-102475.864,36555.384,37752.454,51369.003,23483.547
2.46,09-20-2026 18:37:34:368,-226398.316,-117196.768,42882.492,-93021.97,37674.67,38944.428,50472.072,23199.457
2.464,09-20-2026 18:37:34:372,-195343.16,-86496.334,47630.45,-60406.036,38062.115,39883.559,49512.199,22603.783
2.468,09-20-2026 18:37:34:376,-181390.844,-73148.319,46195.021,-47643.28,37201.126,39341.752,49716.762,22402.17
2.472,09-20-2026 18:37:34:380,-206595.028,-97619.679,40232.469,-74586.877,36426.236,38131.718,50849.727,22997.844
2.476,09-20-2026 18:37:34:384,-233599.512,-124760.643,38024.117,-102003.169,36569.734,37770.514,51337.531,23428.562
2.48,09-20-2026 18:37:34:388,-225498.167,-116306.9,43103.328,-92549.275,37645.97,38944.428,50472.072,23162.8
2.484,09-20-2026 18:37:34:392,-195343.16,-86496.334,47299.197,-61351.426,38019.066,39865.499,49543.67,22594.619
2.488,09-20-2026 18:37:34:396,-181840.918,-73593.253,45201.262,-48588.669,37158.076,39305.632,49732.497,22402.17
2.492,09-20-2026 18:37:34:400,-206595.028,-97619.679,38907.458,-74586.877,36426.236,38131.718,50849.727,22997.844
2.496,09-20-2026 18:37:34:404,-232699.362,-123425.841,37030.359,-101057.78,36598.433,37806.635,51321.796,23428.562
2.5,09-20-2026 18:37:34:408,-224147.943,-115417.032,42330.404,-92076.581,37631.62,38944.428,50472.072,23162.8
2.504,09-20-2026 18:37:34:412,-194941.946,-86624.588,46593.508,-61490.632,37976.061,39805.641,49586.362,22591.579
2.508,09-20-2026 18:37:34:416,-182643.838,-74465.239,44310.545,-49581.623,37194.197,39310.684,49790.21,22453.177
2.512,09-20-2026 18:37:34:420,-206087.107,-97643.998,38957.392,-74590.543,36471.565,38166.095,50877.398,23029.852
2.516,09-20-2026 18:37:34:424,-231451.956,-122722.655,37540.381,-99996.43,36613.722,37841.28,51312.274,23429.68
2.52,09-20-2026 18:37:34:428,-223381.322,-114743.082,42972.257,-90866.189,37620.668,38939.466,50483.292,23152.876
2.524,09-20-2026 18:37:34:432,-194941.946,-86624.588,45806.279,-61887.599,37964.214,39790.173,49640.721,22606.957
2.528,09-20-2026 18:37:34:436,-183028.154,-74845.219,43916.931,-49978.59,37182.35,39295.216,49817.389,22453.177
2.532,09-20-2026 18:37:34:440,-206471.423,-98023.978,38957.392,-74987.51,36483.411,38181.563,50890.988,23022.163
2.536,09-20-2026 18:37:34:444,-230683.324,-122342.676,37697.826,-99996.43,36625.568,37856.747,51298.684,23406.613
2.54,09-20-2026 18:37:34:448,-222612.691,-114363.103,42736.088,-91263.156,37596.975,38923.998,50483.292,23114.431
2.544,09-20-2026 18:37:34:452,-194941.946,-86624.588,46514.785,-62681.533,37952.368,39774.706,49667.901,22614.646
2.548,09-20-2026 18:37:34:456,-183412.469,-75605.178,45176.497,-51566.458,37206.043,39279.749,49858.159,22468.555
2.552,09-20-2026 18:37:34:460,-206087.107,-98023.978,40610.572,-75781.444,36518.951,38197.03,50890.988,23022.163
2.556,09-20-2026 18:37:34:464,-230299.009,-121582.716,38563.778,-99996.43,36684.801,37887.682,51312.274,23406.613
2.56,09-20-2026 18:37:34:468,-221844.059,-113603.144,43129.703,-90866.189,37632.515,38939.466,50510.472,23129.809
2.564,09-20-2026 18:37:34:472,-194941.946,-87004.568,47538.182,-63475.467,37952.368,39759.238,49708.67,22614.646
2.568,09-20-2026 18:37:34:476,-183796.785,-75985.158,45491.388,-52360.392,37217.89,39295.216,49898.928,22476.244
2.572,09-20-2026 18:37:34:480,-206471.423,-98403.957,40689.294,-75781.444,36530.797,38197.03,50890.988,23006.785
2.576,09-20-2026 18:37:34:484,-229530.377,-121202.737,39587.175,-99202.496,36696.647,37903.149,51285.094,23368.168
2.58,09-20-2026 18:37:34:488,-221459.743,-113223.164,43759.485,-90866.189,37644.361,38954.933,50524.062,23122.12
2.584,09-20-2026 18:37:34:492,-194941.946,-87004.568,46908.399,-63872.434,37952.368,39728.304,49735.85,22622.335
2.588,09-20-2026 18:37:34:496,-184565.417,-76745.117,44704.159,-53154.326,37217.89,39264.281,49912.518,22468.555
2.592,09-20-2026 18:37:34:500,-206855.739,-98783.937,39980.789,-76178.411,36554.49,38197.03,50904.578,22999.096
2.596,09-20-2026 18:37:34:504,-229530.377,-121202.737,38799.946,-98805.529,36720.34,37934.084,51285.094,23368.168
2.6,09-20-2026 18:37:34:508,-221075.427,-112843.184,43680.762,-89675.288,37632.515,38954.933,50524.062,23099.053
2.604,09-20-2026 18:37:34:512,-195699.536,-87622.951,47295.308,-63689.463,37930.463,39715.518,49788.198,22610.444
2.608,09-20-2026 18:37:34:516,-185418.628,-77798.823,44723.248,-53747.362,37200.902,39258.202,49951.544,22468.689
2.612,09-20-2026 18:37:34:520,-207351.232,-99479.657,37982.677,-76031.381,36567.901,38232.704,50919.956,22995.206
2.616,09-20-2026 18:37:34:524,-228941.14,-120821.729,36031.459,-97286.907,36718.105,37955.542,51269.984,23325.968
2.62,09-20-2026 18:37:34:528,-221059.11,-112691.416,40377.353,-89058.961,37619.327,38939.466,50523.257,23069.459
2.624,09-20-2026 18:37:34:532,-196042.233,-88300.477,43215.489,-64032.294,37930.463,39701.66,49811.533,22610.444
2.628,09-20-2026 18:37:34:536,-186104.022,-78476.349,41175.579,-54090.193,37243.818,39272.06,49986.547,22475.439
2.632,09-20-2026 18:37:34:540,-207351.232,-99818.42,37982.677,-75688.55,36621.545,38260.42,50931.624,22988.456
2.636,09-20-2026 18:37:34:544,-228598.443,-120482.966,37805.294,-96601.244,36771.749,37983.258,51269.984,23305.717
2.64,09-20-2026 18:37:34:548,-220716.413,-112691.416,42594.647,-88373.299,37630.056,38925.608,50523.257,23042.458
2.644,09-20-2026 18:37:34:552,-196042.233,-88639.24,45787.549,-64032.294,37919.734,39673.944,49834.868,22583.443
2.648,09-20-2026 18:37:34:556,-186789.416,-79492.638,44013.714,-54775.856,37243.818,39244.344,50009.882,22468.689
2.652,09-20-2026 18:37:34:560,-207693.929,-100157.183,39756.511,-76031.381,36621.545,38246.562,50919.956,22968.206
2.656,09-20-2026 18:37:34:564,-228598.443,-120821.729,37982.677,-96601.244,36782.478,37983.258,51258.317,23285.466
2.66,09-20-2026 18:37:34:568,-220716.413,-112691.416,42151.188,-88716.13,37630.056,38939.466,50546.593,23042.458
2.664,09-20-2026 18:37:34:572,-196727.627,-89316.766,45787.549,-65060.787,37919.734,39660.086,49881.539,22603.693
2.668,09-20-2026 18:37:34:576,-187474.81,-80170.164,44279.789,-55804.349,37243.818,39244.344,50033.218,22475.439
2.672,09-20-2026 18:37:34:580,-208379.323,-100834.71,40377.353,-77059.874,36600.087,38246.562,50919.956,22954.705
2.676,09-20-2026 18:37:34:584,-228598.443,-120482.966,39667.82,-96944.075,36793.207,38038.69,51269.984,23305.717
2.68,09-20-2026 18:37:34:588,-220716.413,-113030.179,42860.722,-89401.792,37651.514,38967.182,50581.595,23055.959
2.684,09-20-2026 18:37:34:592,-197413.021,-89994.292,44545.864,-65746.449,37866.09,39632.37,49858.204,22563.192
2.688,09-20-2026 18:37:34:596,-188502.9,-81525.216,42062.496,-56490.011,37243.818,39244.344,50033.218,22468.689
2.692,09-20-2026 18:37:34:600,-208722.02,-101173.473,37982.677,-76717.043,36643.003,38288.136,50919.956,22961.455
2.696,09-20-2026 18:37:34:604,-228255.746,-120482.966,38160.06,-96258.413,36803.935,38038.69,51223.314,23292.216
2.7,09-20-2026 18:37:34:608,-220373.716,-112691.416,43215.489,-88373.299,37651.514,38981.04,50569.928,23096.46
2.704,09-20-2026 18:37:34:612,-197808.781,-90444.948,46306.556,-65708.854,37869.622,39628.034,49891.195,22631.499
2.708,09-20-2026 18:37:34:616,-189354.815,-82104.886,44437.146,-56653.715,37250.032,39242.779,50056.419,22528.502
2.712,09-20-2026 18:37:34:620,-208980.093,-101465.744,39860.313,-76273.182,36659.945,38285.856,50913.519,22991.988
2.716,09-20-2026 18:37:34:624,-227699.59,-119933.023,38764.452,-94987.136,36827.136,38049.732,51192.334,23281.666
2.72,09-20-2026 18:37:34:628,-220151.406,-112486.54,43147.897,-87743.025,37623.753,38956.945,50521.112,23043.486
2.724,09-20-2026 18:37:34:632,-197808.781,-90444.948,46306.556,-65407.016,37840.118,39615.606,49891.195,22612.187
2.728,09-20-2026 18:37:34:636,-189656.742,-82402.746,44308.221,-56955.553,37240.197,39255.206,50077.072,22534.939
2.732,09-20-2026 18:37:34:640,-208980.093,-101465.744,39731.388,-76273.182,36640.276,38298.284,50903.192,23004.862
2.736,09-20-2026 18:37:34:644,-227397.663,-119635.164,38957.839,-94987.136,36817.302,38062.16,51202.661,23333.165
2.74,09-20-2026 18:37:34:648,-219849.479,-112188.68,42890.047,-87441.187,37613.918,38956.945,50541.765,23107.859
2.744,09-20-2026 18:37:34:652,-198110.708,-90742.807,45855.319,-65407.016,37830.283,39590.751,49901.521,22676.56
2.748,09-20-2026 18:37:34:656,-189958.67,-82700.605,44308.221,-56955.553,37230.362,39217.924,50066.745,22580
2.752,09-20-2026 18:37:34:660,-208980.093,-101465.744,40311.55,-75971.344,36640.276,38273.428,50892.866,23037.049
2.756,09-20-2026 18:37:34:664,-227095.735,-119337.305,39666.926,-94081.622,36797.632,38049.732,51171.681,23320.29
2.76,09-20-2026 18:37:34:668,-219849.479,-112188.68,43018.972,-87139.349,37584.414,38944.517,50552.091,23133.608
2.764,09-20-2026 18:37:34:672,-198412.636,-91040.667,45597.469,-65407.016,37800.778,39590.751,49922.174,22721.621
2.768,09-20-2026 18:37:34:676,-190562.524,-83594.183,43276.822,-57257.391,37210.692,39205.496,50087.398,22618.624
2.772,09-20-2026 18:37:34:680,-208980.093,-101763.603,39215.689,-75971.344,36640.276,38273.428,50882.539,23049.924
2.776,09-20-2026 18:37:34:684,-227095.735,-119337.305,38119.827,-93779.784,36797.632,38049.732,51161.355,23346.039
2.78,09-20-2026 18:37:34:688,-219849.479,-112188.68,42116.498,-86837.511,37535.24,38907.235,50500.459,23101.422
2.784,09-20-2026 18:37:34:692,-199016.49,-91636.386,45404.082,-65708.854,37771.274,39565.896,49911.848,22708.747
2.788,09-20-2026 18:37:34:696,-190864.452,-83892.043,44823.92,-56955.553,37200.858,39205.496,50056.419,22599.312
2.792,09-20-2026 18:37:34:700,-208980.093,-101465.744,41278.486,-75367.668,36620.606,38261.001,50830.907,23011.3
2.796,09-20-2026 18:37:34:704,-226793.808,-119039.445,40440.475,-93477.946,36777.963,38049.732,51130.375,23313.853
2.8,09-20-2026 18:37:34:708,-219849.479,-112188.68,43792.521,-86837.511,37574.579,38907.235,50510.785,23107.859
2.804,09-20-2026 18:37:34:712,-199407.422,-92339.75,46674.868,-65722.309,37857.954,39511.939,49915.2,22707.629
2.808,09-20-2026 18:37:34:716,-191412.516,-84445.963,45430.055,-57175.136,37297.507,39134.999,50031.608,22594.976
2.812,09-20-2026 18:37:34:720,-209056.447,-101866.734,41622.39,-75448.403,36745.955,38235.207,50846.464,23058.104
2.816,09-20-2026 18:37:34:724,-226424.691,-119015.306,40377.577,-93132.209,36879.395,37979.861,51118.082,23320.961
2.82,09-20-2026 18:37:34:728,-220083.904,-112754.716,43892.344,-87237.607,37635.554,38843.174,50526.342,23126.948
2.824,09-20-2026 18:37:34:732,-199958.795,-92884.149,46748.092,-66606.5,37857.954,39463.301,49924.901,22726.404
2.828,09-20-2026 18:37:34:736,-191963.889,-84990.363,45137.157,-57175.136,37306.403,39110.68,50041.309,22620.01
2.832,09-20-2026 18:37:34:740,-209056.447,-101866.734,40524.026,-74858.943,36737.059,38186.57,50817.362,23026.812
2.836,09-20-2026 18:37:34:744,-226424.691,-119015.306,39425.661,-92837.479,36897.187,37979.861,51137.483,23352.253
2.84,09-20-2026 18:37:34:748,-220083.904,-113026.916,42720.755,-87237.607,37608.866,38806.696,50536.043,23139.465
2.844,09-20-2026 18:37:34:752,-200510.168,-93428.548,44917.485,-66311.77,37831.266,39451.142,49954.003,22757.697
2.848,09-20-2026 18:37:34:756,-191963.889,-85262.562,43086.877,-56880.406,37297.507,39110.68,50080.112,22657.561
2.852,09-20-2026 18:37:34:760,-208780.761,-101866.734,39279.212,-74269.482,36737.059,38186.57,50846.464,23064.363
2.856,09-20-2026 18:37:34:764,-225597.632,-118470.906,37741.502,-92248.019,36861.603,37967.701,51137.483,23352.253
2.86,09-20-2026 18:37:34:768,-219808.217,-112754.716,41036.596,-86648.147,37591.074,38818.856,50574.845,23183.274
2.864,09-20-2026 18:37:34:772,-200234.482,-93428.548,43819.12,-65427.579,37804.578,39451.142,49983.105,22795.248
2.868,09-20-2026 18:37:34:776,-191963.889,-85262.562,41915.288,-55701.486,37297.507,39134.999,50118.914,22701.37
2.872,09-20-2026 18:37:34:780,-207953.701,-101322.335,37961.175,-72795.832,36728.163,38198.729,50856.164,23083.138
2.876,09-20-2026 18:37:34:784,-225046.259,-117926.507,37448.604,-91363.828,36843.811,37967.701,51147.184,23358.512
2.88,09-20-2026 18:37:34:788,-219256.844,-112482.516,41036.596,-86353.417,37591.074,38818.856,50594.246,23208.308
2.884,09-20-2026 18:37:34:792,-200234.482,-93700.748,43819.12,-65722.309,37840.162,39487.62,50031.608,22851.574
2.888,09-20-2026 18:37:34:796,-191412.516,-84990.363,42793.979,-55701.486,37324.195,39159.318,50138.316,22738.921
2.892,09-20-2026 18:37:34:800,-207402.329,-100777.936,39352.437,-72795.832,36745.955,38223.048,50865.865,23108.172
2.896,09-20-2026 18:37:34:804,-223943.514,-117382.108,38180.848,-90774.368,36861.603,37979.861,51147.184,23389.804
2.9,09-20-2026 18:37:34:808,-218981.158,-112482.516,41915.288,-86648.147,37582.178,38818.856,50603.947,23220.825
2.904,09-20-2026 18:37:34:812,-200243.333,-94067.898,45123.523,-66743.069,37843.962,39505.367,50054.899,22877.234
2.908,09-20-2026 18:37:34:816,-192053.207,-86019.392,44610.059,-56244.633,37327.905,39184.575,50157.493,22763.642
2.912,09-20-2026 18:37:34:820,-207068.438,-100774.986,40759.077,-73158.78,36772.151,38271.551,50896.174,23185.554
2.916,09-20-2026 18:37:34:824,-223448.691,-116871.997,39218.684,-91239.419,36881.317,38024.788,51183.438,23445.192
2.92,09-20-2026 18:37:34:828,-219353.627,-112847.744,41015.809,-87156.694,37595.858,38851.445,50649.947,23282.918
2.924,09-20-2026 18:37:34:832,-201608.354,-95409.315,42556.202,-66743.069,37843.962,39505.367,50095.937,22925.916
2.928,09-20-2026 18:37:34:836,-192053.207,-86019.392,41529.273,-55661.387,37337.829,39172.237,50157.493,22779.87
2.932,09-20-2026 18:37:34:840,-205703.417,-99433.568,36394.63,-71409.04,36752.303,38246.875,50855.136,23153.099
2.936,09-20-2026 18:37:34:844,-220718.649,-114189.162,34084.041,-87739.94,36851.545,37987.773,51121.882,23396.51
2.94,09-20-2026 18:37:34:848,-213893.543,-107482.074,37678.291,-82490.722,37585.934,38839.106,50588.39,23250.463
2.944,09-20-2026 18:37:34:852,-192053.207,-86019.392,40502.344,-61493.851,37814.19,39493.029,49972.823,22877.234
2.948,09-20-2026 18:37:34:856,-181133.039,-75288.051,39988.88,-49245.676,37298.132,39159.899,49972.823,22714.96
2.952,09-20-2026 18:37:34:860,-192053.207,-86019.392,37421.559,-63243.59,36742.379,38234.536,50629.428,23055.735
2.956,09-20-2026 18:37:34:864,-196148.27,-90043.645,37935.023,-74325.272,36851.545,37938.421,50567.871,23104.417
2.96,09-20-2026 18:37:34:868,-172942.912,-65898.128,41786.005,-61493.851,37367.602,38715.725,49706.078,22682.506
2.964,09-20-2026 18:37:34:872,-137452.365,-31021.271,45123.523,-36414.255,37387.45,39394.324,48967.397,22195.685
2.968,09-20-2026 18:37:34:876,-111516.966,-5534.337,45636.987,-21833.095,36930.938,39122.884,48946.878,22017.184
2.972,09-20-2026 18:37:34:880,-111516.966,-5534.337,42812.934,-35247.762,36613.364,38185.184,49562.445,22325.504
2.976,09-20-2026 18:37:34:884,-112881.987,-8217.172,36394.63,-52161.908,36801.924,37938.421,49747.115,22698.733
2.98,09-20-2026 18:37:34:888,-95136.713,9221.257,33570.577,-48079.183,37317.981,38777.416,49131.548,22925.916
2.984,09-20-2026 18:37:34:892,-66471.272,37391.026,31003.255,-28248.805,37486.692,39468.353,48577.538,23315.373
2.988,09-20-2026 18:37:34:896,-50091.019,53488.037,20477.238,-17167.123,37169.118,39209.251,48721.17,23412.737
2.992,09-20-2026 18:37:34:900,-55551.103,46780.949,13032.006,-33498.023,36672.909,38296.227,49521.407,23607.465
2.996,09-20-2026 18:37:34:904,-63741.23,37391.026,13032.006,-53328.401,36583.592,38049.464,49849.71,23932.013
3,09-20-2026 18:37:34:908,-55551.103,46780.949,17396.452,-52161.908,37069.876,38950.15,49439.332,24078.059
3.004,09-20-2026 18:37:34:912,-35514.016,65446.087,20445.364,-34195.844,37156.601,39668.893,49009.24,23817.527
3.008,09-20-2026 18:37:34:916,-27168.322,72765.568,19004.124,-25850.239,36600.937,39429.908,49234.947,23569.378
3.012,09-20-2026 18:37:34:920,-41475.226,58126.606,15545.147,-43063.05,35974.552,38487.245,50014.666,23711.178
3.016,09-20-2026 18:37:34:924,-56974.373,42267.73,14536.278,-62362.261,36065.478,38234.983,50363.487,23782.077
3.02,09-20-2026 18:37:34:928,-53397.647,45927.47,17779.069,-59754.26,36762.585,39071.43,49891.552,23392.129
3.024,09-20-2026 18:37:34:932,-37898.5,60566.433,20589.488,-41498.249,37025.262,39801.662,49419.618,22860.381
3.028,09-20-2026 18:37:34:936,-30745.048,66666,18715.876,-31587.843,36560.525,39562.677,49583.769,22505.882
3.032,09-20-2026 18:37:34:940,-47436.437,50807.124,14896.588,-47757.452,35984.655,38606.738,50342.968,22718.581
3.036,09-20-2026 18:37:34:944,-64127.825,33728.335,13887.72,-65491.863,36085.684,38314.645,50650.752,23002.18
3.04,09-20-2026 18:37:34:948,-61743.341,36168.162,16698.139,-62883.861,36823.203,39151.092,50158.298,23073.08
3.044,09-20-2026 18:37:34:952,-46244.195,52027.038,18427.627,-43584.65,37126.292,39881.324,49645.325,23037.63
3.048,09-20-2026 18:37:34:956,-40282.984,58126.606,16265.767,-32631.044,36651.452,39602.508,49727.401,23108.53
3.052,09-20-2026 18:37:34:960,-56974.373,42267.73,12086.169,-48800.653,36055.375,38633.292,50445.563,23675.728
3.056,09-20-2026 18:37:34:964,-74858.004,23969.027,12158.231,-68621.465,36095.787,38301.368,50732.827,24172.026
3.06,09-20-2026 18:37:34:968,-74858.004,23969.027,15184.836,-68099.864,36833.306,39164.369,50301.93,24349.275
3.064,09-20-2026 18:37:34:972,-64127.825,33728.335,18571.752,-51930.255,37095.983,39881.324,49891.552,24313.825
3.068,09-20-2026 18:37:34:976,-67704.552,30068.595,17923.193,-47235.852,36651.452,39668.893,50240.374,24384.725
3.072,09-20-2026 18:37:34:980,-97510.603,790.671,12878.852,-68099.864,36166.508,38752.784,51204.762,24774.674
3.076,09-20-2026 18:37:34:984,-126124.412,-28487.254,11437.611,-90528.678,36277.641,38447.414,51594.621,25200.072
3.08,09-20-2026 18:37:34:988,-134470.106,-37026.648,15473.085,-89485.477,37005.056,39257.308,51122.686,25341.871
3.084,09-20-2026 18:37:34:992,-127316.654,-29707.167,18571.752,-69143.065,37257.631,39921.154,50527.638,25022.823
3.088,09-20-2026 18:37:34:996,-126124.412,-29707.167,17346.697,-56624.658,36752.482,39642.339,50507.119,24703.774
3.092,09-20-2026 18:37:35:000,-148777.011,-51665.61,13095.038,-72272.667,36095.787,38646.568,51245.8,25696.37
3.096,09-20-2026 18:37:35:004,-175006.336,-78503.707,11437.611,-92093.479,36146.302,38314.645,51615.14,26724.416
3.1,09-20-2026 18:37:35:008,-178583.062,-82163.448,14536.278,-89485.477,36792.894,39084.707,51061.13,27008.015
3.104,09-20-2026 18:37:35:012,-167101.239,-71280.875,16672.747,-67800.351,37020.613,39750.968,50446.948,26412.922
3.108,09-20-2026 18:37:35:016,-163022.046,-67763.784,15575.008,-53592.956,36552.121,39469.783,50484.768,25806.475
3.112,09-20-2026 18:37:35:020,-180154.658,-85349.242,11184.053,-67123.809,35943.08,38427.745,51203.331,25546.569
3.116,09-20-2026 18:37:35:024,-198918.947,-104693.246,10086.314,-85390.459,35966.505,38063.859,51493.278,25575.447
3.12,09-20-2026 18:37:35:028,-198918.947,-105572.519,13379.531,-84375.645,36598.97,38824.712,51014.236,25546.569
3.124,09-20-2026 18:37:35:032,-185865.529,-93262.698,15731.828,-65432.452,36809.792,39502.864,50472.161,25142.27
3.128,09-20-2026 18:37:35:036,-180154.658,-87987.061,14006.81,-53254.685,36399.861,39287.84,50598.225,24766.85
3.132,09-20-2026 18:37:35:040,-198103.109,-105572.519,10556.774,-68138.622,35802.533,38278.882,51329.395,24911.243
3.136,09-20-2026 18:37:35:044,-216867.398,-124916.524,10399.954,-88096.629,35825.957,37898.456,51619.342,25286.663
3.14,09-20-2026 18:37:35:048,-216867.398,-125795.797,13536.351,-87081.815,36505.271,38659.309,51152.906,25431.055
3.144,09-20-2026 18:37:35:052,-202998.141,-112606.703,15575.008,-67800.351,36798.079,39370.541,50623.438,25113.392
3.148,09-20-2026 18:37:35:056,-198103.109,-108210.338,13379.531,-56975.67,36376.436,39122.437,50749.502,24766.85
3.152,09-20-2026 18:37:35:060,-217683.237,-126675.07,9302.215,-74565.777,35802.533,38080.399,51531.097,24969
3.156,09-20-2026 18:37:35:064,-238895.042,-148656.893,8518.116,-96215.14,35943.08,37733.053,51896.683,25315.541
3.16,09-20-2026 18:37:35:068,-241342.558,-150415.438,11654.512,-96215.14,36716.093,38526.987,51417.64,25431.055
3.164,09-20-2026 18:37:35:072,-228289.14,-138105.618,14477.27,-76595.405,37114.312,39287.84,50875.566,24651.337
3.168,09-20-2026 18:37:35:076,-220946.592,-131071.434,12752.251,-61711.468,36821.504,39089.357,50875.566,23958.254
3.172,09-20-2026 18:37:35:080,-236447.526,-146898.347,7734.017,-74904.048,36282.737,38030.778,51531.097,24478.066
3.176,09-20-2026 18:37:35:084,-254395.977,-165363.078,5538.539,-93508.97,36376.436,37650.351,51871.47,24766.85
3.18,09-20-2026 18:37:35:088,-254395.977,-165363.078,8361.296,-91479.342,37079.175,38460.825,51405.034,24795.729
3.184,09-20-2026 18:37:35:092,-239710.881,-151294.711,11184.053,-71521.335,37289.996,39238.219,50812.534,23727.226
3.188,09-20-2026 18:37:35:096,-232368.333,-144260.528,7890.836,-57990.483,36856.641,39072.816,50862.959,22745.359
3.192,09-20-2026 18:37:35:100,-247869.268,-160087.441,990.763,-73212.692,36200.751,38063.859,51644.555,22947.508
3.196,09-20-2026 18:37:35:104,-266633.557,-179431.445,-3243.372,-94862.055,36165.614,37666.892,52047.959,23380.685
3.2,09-20-2026 18:37:35:108,-266633.557,-179431.445,-263.795,-95876.869,36868.353,38526.987,51631.949,23380.685
3.204,09-20-2026 18:37:35:112,-252519.816,-165892.636,2275.497,-77298.591,37140.374,39395.888,51111.019,23127.976
3.208,09-20-2026 18:37:35:116,-244853.168,-158624.921,1624.927,-64785.369,36598.568,39220.204,51128.319,22977.504
3.212,09-20-2026 18:37:35:120,-260493.131,-174068.814,-1844.779,-81767.599,35731.678,38078.253,51820.329,23198.786
3.216,09-20-2026 18:37:35:124,-279506.419,-193146.565,-2929.062,-104559.538,35587.196,37639.041,52131.734,23428.92
3.22,09-20-2026 18:37:35:128,-279199.753,-193600.797,-326.783,-105453.34,36237.363,38482.328,51630.026,23269.596
3.224,09-20-2026 18:37:35:132,-262946.458,-178156.904,3793.493,-85789.706,36526.327,39343.183,50989.917,22853.586
3.228,09-20-2026 18:37:35:136,-253746.48,-169526.493,6395.773,-71041.98,36092.882,39237.772,51007.217,22641.155
3.232,09-20-2026 18:37:35:140,-268466.445,-184061.922,6612.629,-84002.102,35370.473,38130.958,51699.227,22862.437
3.236,09-20-2026 18:37:35:144,-283799.742,-203139.672,7913.769,-102325.034,35352.413,37674.178,52027.932,23154.53
3.24,09-20-2026 18:37:35:148,-283799.742,-203139.672,12034.045,-99196.729,36092.882,38535.033,51474.324,23119.125
3.244,09-20-2026 18:37:35:152,-269999.775,-187695.779,15937.464,-75064.087,36454.086,39448.594,50799.614,22888.991
3.248,09-20-2026 18:37:35:156,-259573.133,-177702.672,16588.034,-57188.056,36056.761,39325.614,50730.413,22897.842
3.252,09-20-2026 18:37:35:160,-273679.766,-192238.1,14636.325,-68807.476,35316.293,38166.095,51387.823,23313.853
3.256,09-20-2026 18:37:35:164,-283799.742,-210861.619,15503.751,-86683.507,35244.052,37656.61,51630.026,23667.905
3.26,09-20-2026 18:37:35:168,-283493.076,-210407.386,20057.74,-85342.805,35966.46,38517.465,51093.719,23712.161
3.264,09-20-2026 18:37:35:172,-272146.436,-192692.333,24394.873,-63444.667,36255.424,39378.32,50349.808,23402.366
3.268,09-20-2026 18:37:35:176,-260186.465,-180428.065,24611.729,-48696.941,35803.918,39202.635,50246.006,23207.637
3.272,09-20-2026 18:37:35:180,-272759.768,-193600.797,21142.023,-64785.369,35045.39,38007.979,50938.016,23482.027
3.276,09-20-2026 18:37:35:184,-281959.746,-213132.779,19407.17,-89364.912,34991.209,37463.357,51301.322,23765.269
3.28,09-20-2026 18:37:35:188,-281959.746,-214041.244,22226.306,-92493.217,35731.678,38306.643,50782.314,23729.864
3.284,09-20-2026 18:37:35:192,-272759.768,-195417.725,23961.159,-71488.881,36110.942,39185.067,50038.403,23340.407
3.288,09-20-2026 18:37:35:196,-258959.801,-180882.297,23310.59,-54059.75,35695.557,39026.95,49934.602,23074.868
3.292,09-20-2026 18:37:35:200,-270919.772,-194055.029,19407.17,-69701.278,34900.908,37762.021,50730.413,23305.002
3.296,09-20-2026 18:37:35:204,-280119.751,-215403.94,17672.317,-93833.92,34846.727,37217.398,51232.121,23641.351
3.3,09-20-2026 18:37:35:208,-280119.751,-216312.404,20708.31,-96068.424,35569.136,37990.411,50695.813,23605.946
3.304,09-20-2026 18:37:35:212,-271024.245,-196566.248,24097.639,-72350.675,35954.882,38872.232,49901.387,23233.789
3.308,09-20-2026 18:37:35:216,-255350.754,-178573.987,24097.639,-53251.198,35570.745,38786.133,49782.297,22973.615
3.312,09-20-2026 18:37:35:220,-267407.285,-190568.827,19944.685,-68769.523,34802.471,37580.748,50615.928,23259.806
3.316,09-20-2026 18:37:35:224,-277655.337,-211559.798,18283.503,-92643.868,34743.373,37021.105,51131.985,23598.033
3.32,09-20-2026 18:37:35:228,-277655.337,-212559.368,22021.162,-93837.585,35511.647,37839.045,50576.231,23650.068
3.324,09-20-2026 18:37:35:232,-264995.979,-189569.257,26589.412,-67575.805,35984.431,38872.232,49623.51,23806.172
3.328,09-20-2026 18:37:35:236,-242691.397,-165579.577,27627.65,-42507.743,35688.941,38915.281,49266.24,24352.539
3.332,09-20-2026 18:37:35:240,-249322.489,-171576.997,23267.048,-53251.198,34861.569,37666.847,50099.871,24560.678
3.336,09-20-2026 18:37:35:244,-269215.765,-204562.808,17868.208,-93837.585,34181.942,36375.363,51290.772,24794.835
3.34,09-20-2026 18:37:35:248,-277052.51,-232550.768,18906.447,-122486.8,35068.412,36978.055,51370.165,25705.445
3.344,09-20-2026 18:37:35:252,-263187.499,-199564.958,28458.241,-81900.413,36634.509,39259.677,49464.723,25783.497
3.348,09-20-2026 18:37:35:256,-205918.977,-129595.057,35310.615,-6696.225,36723.156,40378.963,47718.069,24560.678
3.352,09-20-2026 18:37:35:260,-209535.937,-132593.767,24512.935,-22214.549,34506.981,37752.946,49623.51,23884.225
3.356,09-20-2026 18:37:35:264,-257762.06,-203563.238,11638.777,-106968.475,33325.02,35299.127,52402.279,24690.765
3.36,09-20-2026 18:37:35:268,-275244.03,-251542.598,13715.254,-153523.449,35097.961,36504.511,52362.582,26277.828
3.364,09-20-2026 18:37:35:272,-261981.846,-208561.088,27004.707,-91450.151,37077.744,39604.073,49464.723,25965.619
3.368,09-20-2026 18:37:35:276,-201096.365,-124597.207,33857.081,-1921.356,36989.097,40766.408,47440.192,24352.539
3.372,09-20-2026 18:37:35:280,-205316.151,-126596.347,21190.571,-18633.398,34506.981,37795.995,49623.51,23676.085
3.376,09-20-2026 18:37:35:284,-256556.407,-200564.528,8939.357,-106968.475,33354.569,35299.127,52481.672,24612.713
3.38,09-20-2026 18:37:35:288,-274038.377,-250543.028,11638.777,-153523.449,35127.51,36461.462,52481.672,26199.776
3.384,09-20-2026 18:37:35:292,-263187.499,-210560.228,24512.935,-95031.303,37018.646,39431.875,49663.207,25965.619
3.388,09-20-2026 18:37:35:296,-209535.937,-131594.197,31157.661,-11471.094,36900.45,40508.111,47718.069,24482.626
3.392,09-20-2026 18:37:35:300,-212550.069,-132593.767,20982.924,-24601.984,34713.824,37839.045,49663.207,23858.207
3.396,09-20-2026 18:37:35:304,-257159.234,-197565.818,10185.243,-102193.606,33709.158,35686.572,52243.492,24716.783
3.4,09-20-2026 18:37:35:308,-272832.724,-243546.038,12054.072,-143973.71,35245.706,36633.66,52283.189,26043.671
3.404,09-20-2026 18:37:35:312,-263039.486,-206755.558,23942.071,-93423.586,36949.222,39240.41,49795.932,25807.503
3.408,09-20-2026 18:37:35:316,-213797.878,-133785.517,31608.451,-17117.234,36919.404,40306.23,47955.265,24452.227
3.412,09-20-2026 18:37:35:320,-215060.483,-132679.91,21722.856,-29040.102,34862.016,37887.637,49714.124,23852.351
3.416,09-20-2026 18:37:35:324,-256726.459,-195699.492,10626.779,-101769.594,33878.047,35755.996,52209.249,24674.404
3.42,09-20-2026 18:37:35:328,-271246.421,-241029.366,12039.007,-142307.343,35339.091,36657.844,52291.057,25985.244
3.424,09-20-2026 18:37:35:332,-261145.578,-203438.738,23538.577,-91039.013,37068.491,39281.403,49795.932,25696.415
3.428,09-20-2026 18:37:35:336,-208747.457,-127151.877,30397.97,-13540.374,37098.308,40429.21,47873.458,24296.704
3.432,09-20-2026 18:37:35:340,-211272.667,-128257.484,20310.628,-27847.815,34921.65,37887.637,49795.932,23741.263
3.436,09-20-2026 18:37:35:344,-255463.854,-196805.098,8205.817,-106538.741,33728.961,35551.031,52495.575,24629.968
3.44,09-20-2026 18:37:35:348,-270615.118,-244346.186,10425.032,-149461.064,35368.909,36575.858,52536.479,26118.55
3.444,09-20-2026 18:37:35:352,-258620.367,-201227.525,24749.058,-88654.439,37277.211,39486.368,49673.22,25740.85
3.448,09-20-2026 18:37:35:356,-199909.219,-116095.81,31810.198,-4002.08,37187.76,40593.182,47587.132,24230.051
3.452,09-20-2026 18:37:35:360,-203697.035,-118307.023,19503.64,-23078.668,34772.564,37846.644,49714.124,23719.045
3.456,09-20-2026 18:37:35:364,-252307.341,-190171.458,7398.83,-106538.741,33699.144,35551.031,52536.479,24763.274
3.46,09-20-2026 18:37:35:368,-269352.513,-238818.152,9819.792,-149461.064,35398.726,36616.851,52495.575,26229.638
3.464,09-20-2026 18:37:35:372,-256726.459,-194593.885,23135.084,-91039.013,37247.394,39404.382,49673.22,25718.632
3.468,09-20-2026 18:37:35:376,-198015.311,-112778.99,30397.97,-6386.653,37217.577,40552.189,47668.94,24141.18
3.472,09-20-2026 18:37:35:380,-200540.522,-112778.99,19100.147,-20694.094,34981.285,37928.63,49714.124,23541.304
3.476,09-20-2026 18:37:35:384,-249782.13,-183537.818,6793.589,-104154.167,33848.23,35633.017,52495.575,24452.227
3.48,09-20-2026 18:37:35:388,-268089.908,-235501.332,8811.058,-151845.637,35517.995,36616.851,52536.479,25851.938
3.484,09-20-2026 18:37:35:392,-254832.551,-190171.458,21924.603,-93423.586,37456.115,39486.368,49673.22,25296.497
3.488,09-20-2026 18:37:35:396,-191070.982,-103934.137,29994.476,-4002.08,37485.932,40757.154,47546.228,23741.263
3.492,09-20-2026 18:37:35:400,-192964.89,-103934.137,18898.4,-18309.521,35070.736,38051.61,49714.124,23407.998
3.496,09-20-2026 18:37:35:404,-245994.314,-179115.391,6188.349,-105346.454,33818.413,35592.024,52700.094,24585.533
3.5,09-20-2026 18:37:35:408,-266827.302,-235501.332,8205.817,-155422.497,35517.995,36575.858,52740.997,26051.897
3.504,09-20-2026 18:37:35:412,-253566.549,-189597.108,22241.506,-93297.031,37538.324,39601.077,49651.629,25461.364
3.508,09-20-2026 18:37:35:416,-191304.96,-101729.36,28268.475,-5031.959,37354.951,40668.776,47592.586,23777.205
3.512,09-20-2026 18:37:35:420,-210113.148,-119702.309,13512.792,-37128.349,34578.149,37465.681,50365.99,23561.287
3.516,09-20-2026 18:37:35:424,-258755.014,-196586.588,4368.425,-120378.36,34237.597,35826.002,52845.246,24986.345
3.52,09-20-2026 18:37:35:428,-265240.597,-214559.536,12265.833,-130408.481,36411.886,37770.738,51584.608,25871.608
3.524,09-20-2026 18:37:35:432,-238001.151,-151654.217,23696.291,-59194.617,37564.521,40058.662,48811.203,24835.202
3.528,09-20-2026 18:37:35:436,-182873.703,-89747.395,24735.424,-5031.959,36647.652,39982.398,48096.841,23604.47
3.532,09-20-2026 18:37:35:440,-217895.847,-125693.292,11226.7,-53176.543,34630.541,37236.889,50954.288,24079.49
3.536,09-20-2026 18:37:35:444,-260052.131,-198583.582,3744.945,-126396.433,34342.382,35864.134,52929.288,25288.63
3.54,09-20-2026 18:37:35:448,-265240.597,-215558.033,11434.527,-132414.506,36438.082,37770.738,51626.629,26217.076
3.544,09-20-2026 18:37:35:452,-239298.268,-151654.217,23488.465,-61200.641,37564.521,40020.53,48853.224,25245.446
3.548,09-20-2026 18:37:35:456,-183522.261,-88748.898,25566.73,-5031.959,36647.652,39982.398,48096.841,23906.755
3.552,09-20-2026 18:37:35:460,-217895.847,-123696.297,11642.353,-53176.543,34604.345,37236.889,50912.267,24230.632
3.556,09-20-2026 18:37:35:464,-259403.573,-195588.09,3329.292,-125393.421,34394.775,35940.398,52929.288,25461.364
3.56,09-20-2026 18:37:35:468,-264592.038,-211564.045,11850.18,-130408.481,36411.886,37770.738,51584.608,26303.443
3.564,09-20-2026 18:37:35:472,-238649.71,-148658.725,25151.077,-61200.641,37485.932,39906.134,48853.224,25267.038
3.568,09-20-2026 18:37:35:476,-184819.378,-88748.898,27229.342,-8040.995,36621.456,39906.134,48222.905,23993.122
3.572,09-20-2026 18:37:35:480,-219841.521,-123696.297,13512.792,-55182.568,34682.934,37236.889,50996.31,24295.407
3.576,09-20-2026 18:37:35:484,-259403.573,-193591.096,5615.384,-125393.421,34473.364,36016.662,52887.267,25396.588
3.58,09-20-2026 18:37:35:488,-263943.48,-210565.547,12058.006,-131411.494,36464.278,37770.738,51626.629,26152.301
3.584,09-20-2026 18:37:35:492,-239298.268,-148658.725,22241.506,-63206.665,37512.128,39868.002,48979.288,25159.079
3.588,09-20-2026 18:37:35:496,-186765.052,-88748.898,22864.985,-11050.032,36647.652,39791.738,48264.926,23928.347
3.592,09-20-2026 18:37:35:500,-219841.521,-122697.8,9564.088,-56185.58,34709.13,37236.889,50954.288,24209.04
3.596,09-20-2026 18:37:35:504,-258755.014,-192592.599,1874.507,-126396.433,34473.364,35978.53,52929.288,25331.813
3.6,09-20-2026 18:37:35:508,-263294.922,-209567.05,9148.435,-131411.494,36438.082,37694.474,51668.65,26152.301
3.604,09-20-2026 18:37:35:512,-239161.654,-147198.039,20492.392,-63369.565,37483.026,39805.015,48990.017,25149.423
3.608,09-20-2026 18:37:35:516,-184506.274,-84555.487,22235.471,-10147.156,36616.896,39805.015,48161.036,23791.42
3.612,09-20-2026 18:37:35:520,-217166.196,-117585.196,9598.152,-55090.523,34661.118,37189.682,50909.764,24036.306
3.616,09-20-2026 18:37:35:524,-257824.467,-190478.348,1318.529,-126053.736,34353.782,35863.597,53004.033,25238.472
3.62,09-20-2026 18:37:35:528,-262490.17,-212118.502,8072.958,-136698.218,36281.62,37484.367,51913.268,26195.753
3.624,09-20-2026 18:37:35:532,-241827.77,-150614.905,20928.162,-68100.446,37510.966,39731.343,49077.278,25305.259
3.628,09-20-2026 18:37:35:536,-179174.042,-77721.754,24414.319,-3050.834,36868.353,40062.864,47855.621,23858.207
3.632,09-20-2026 18:37:35:540,-205835.203,-105056.686,9598.152,-44446.042,34633.179,37300.189,50647.98,23902.732
3.636,09-20-2026 18:37:35:544,-253825.292,-183644.615,-642.434,-123688.295,34158.204,35716.255,53047.663,25171.685
3.64,09-20-2026 18:37:35:548,-262490.17,-216674.324,5240.456,-143794.539,36113.982,37263.353,52218.682,26284.802
3.644,09-20-2026 18:37:35:552,-243160.828,-154031.772,17659.89,-71648.606,37538.905,39731.343,49164.539,25372.046
3.648,09-20-2026 18:37:35:556,-177840.984,-75443.843,21146.047,-1868.114,37008.052,40210.207,47724.73,23858.207
3.652,09-20-2026 18:37:35:560,-197170.326,-93667.131,7201.419,-37349.72,34716.998,37447.532,50386.196,23746.896
3.656,09-20-2026 18:37:35:564,-248493.06,-174532.971,-3257.051,-120140.135,34046.445,35679.419,53047.663,25015.849
3.66,09-20-2026 18:37:35:568,-261823.641,-220091.19,1318.529,-152073.58,35750.766,36821.325,52698.618,26262.54
3.664,09-20-2026 18:37:35:572,-249159.589,-168838.193,15263.157,-87023.969,37399.207,39326.151,49600.846,25527.883
3.668,09-20-2026 18:37:35:576,-182506.687,-78860.71,23324.895,-4233.555,37371.267,40357.55,47506.576,23969.519
3.672,09-20-2026 18:37:35:580,-180507.1,-76582.799,11777,-19608.917,35080.214,37889.56,49644.476,23479.748
3.676,09-20-2026 18:37:35:584,-236495.538,-150614.905,-1078.203,-102399.332,33990.566,35716.255,52654.988,24548.34
3.68,09-20-2026 18:37:35:588,-260490.583,-210979.546,446.99,-152073.58,35527.248,36526.64,52916.772,26106.703
3.684,09-20-2026 18:37:35:592,-249826.118,-168838.193,14173.733,-95303.01,37371.267,39141.973,49993.521,25594.67
3.688,09-20-2026 18:37:35:596,-185172.803,-81138.621,22453.355,-8964.435,37483.026,40357.55,47681.099,24014.044
3.692,09-20-2026 18:37:35:600,-181840.158,-75443.843,11777,-19608.917,35191.972,37926.395,49688.107,23457.485
3.696,09-20-2026 18:37:35:604,-236495.538,-149475.95,-642.434,-102399.332,34102.325,35826.762,52654.988,24615.127
3.7,09-20-2026 18:37:35:608,-260490.583,-208701.635,664.875,-152073.58,35611.067,36600.311,52960.402,26128.966
3.704,09-20-2026 18:37:35:612,-249116.272,-166436.141,14661.403,-96124.661,37434.746,39171.343,50005.233,25640.312
3.708,09-20-2026 18:37:35:616,-184612.49,-78358.645,25171.372,-8140.505,37546.863,40397.917,47704.702,24061.027
3.712,09-20-2026 18:37:35:620,-181354.723,-73899.025,14880.361,-17401.995,35248.477,38016.92,49707.016,23443.046
3.716,09-20-2026 18:37:35:624,-236085.205,-147482.755,1304.984,-100755.406,34155.343,35888.453,52689.186,24541.679
3.72,09-20-2026 18:37:35:628,-259541.125,-206572.721,2180.815,-154008.973,35640.885,36609.967,52987.403,26120.964
3.724,09-20-2026 18:37:35:632,-249116.272,-165321.236,16413.065,-99597.719,37490.804,39243.494,50047.836,25708.976
3.728,09-20-2026 18:37:35:636,-184612.49,-78358.645,26485.118,-9298.192,37602.921,40470.069,47704.702,24152.58
3.732,09-20-2026 18:37:35:640,-182006.276,-72784.12,15537.234,-18559.682,35276.507,38052.996,49749.619,23580.375
3.736,09-20-2026 18:37:35:644,-236085.205,-147482.755,1523.942,-101913.092,34183.372,35960.604,52731.788,24701.896
3.74,09-20-2026 18:37:35:648,-259541.125,-206572.721,1961.857,-155166.659,35668.914,36682.118,53030.005,26235.405
3.744,09-20-2026 18:37:35:652,-249116.272,-166436.141,16194.107,-99597.719,37462.775,39243.494,50090.438,25731.865
3.748,09-20-2026 18:37:35:656,-185264.043,-77243.74,26266.161,-9298.192,37574.892,40470.069,47704.702,24061.027
3.752,09-20-2026 18:37:35:660,-181354.723,-71669.215,15099.319,-17401.995,35276.507,38089.071,49707.016,23443.046
3.756,09-20-2026 18:37:35:664,-235433.651,-145252.945,1086.027,-100755.406,34183.372,35960.604,52646.584,24473.014
3.76,09-20-2026 18:37:35:668,-258889.572,-205457.816,1304.984,-155166.659,35612.856,36646.043,52987.403,25937.858
3.764,09-20-2026 18:37:35:672,-249116.272,-164206.331,15318.276,-100755.406,37434.746,39207.418,50047.836,25388.542
3.768,09-20-2026 18:37:35:676,-184612.49,-76128.835,24514.499,-10455.878,37546.863,40433.993,47662.1,23900.81
3.772,09-20-2026 18:37:35:680,-179400.063,-68324.5,13566.615,-17401.995,35276.507,38089.071,49621.811,23397.27
3.776,09-20-2026 18:37:35:684,-233478.991,-140793.325,-8.762,-100755.406,34155.343,35924.528,52603.981,24633.232
3.78,09-20-2026 18:37:35:688,-258889.572,-203228.006,210.196,-155166.659,35584.827,36573.891,53030.005,26166.74
3.784,09-20-2026 18:37:35:692,-249116.272,-163091.426,14004.53,-101913.092,37490.804,39171.343,50133.041,25640.312
3.788,09-20-2026 18:37:35:696,-183960.937,-73899.025,23638.668,-10455.878,37715.037,40470.069,47704.702,24015.251
3.792,09-20-2026 18:37:35:700,-176793.85,-64979.784,12471.826,-16244.309,35388.623,38125.147,49579.209,23328.605
3.796,09-20-2026 18:37:35:704,-232175.885,-137448.61,-1322.508,-98440.033,34211.401,35960.604,52603.981,24450.126
3.8,09-20-2026 18:37:35:708,-258238.019,-200998.196,-1322.508,-155166.659,35640.885,36609.967,53072.608,26029.411
3.804,09-20-2026 18:37:35:712,-248598.248,-161281.203,12333.201,-100787.1,37555.625,39205.943,50132.415,25578.755
3.808,09-20-2026 18:37:35:716,-181985.042,-70239.865,21752.852,-8833.812,37792.732,40581.917,47645.47,24017.173
3.812,09-20-2026 18:37:35:720,-173658.392,-61135.731,10763.259,-14580.892,35421.659,38212.185,49565.217,23313.361
3.816,09-20-2026 18:37:35:724,-229863.284,-133968.801,-2693.385,-97338.852,34236.122,36033.56,52619.359,24413.067
3.82,09-20-2026 18:37:35:728,-257618.786,-197697.738,-2020.553,-153660.241,35629.128,36645.104,53142.926,26040.632
3.824,09-20-2026 18:37:35:732,-247904.36,-159005.169,10763.259,-99637.684,37585.263,39282.386,50176.045,25644.738
3.828,09-20-2026 18:37:35:736,-181291.155,-69101.848,19061.523,-7684.396,37881.647,40734.803,47689.101,24083.155
3.832,09-20-2026 18:37:35:740,-172270.617,-57721.681,8520.485,-12282.06,35451.297,38365.071,49565.217,23335.355
3.836,09-20-2026 18:37:35:744,-229169.396,-131692.768,-3590.495,-95040.02,34236.122,36110.003,52619.359,24413.067
3.84,09-20-2026 18:37:35:748,-257618.786,-196559.721,-3141.94,-152510.825,35629.128,36683.325,53186.557,26018.638
3.844,09-20-2026 18:37:35:752,-247904.36,-157867.152,9866.149,-100787.1,37614.901,39358.829,50219.676,25556.761
3.848,09-20-2026 18:37:35:756,-180597.267,-66825.815,19061.523,-9983.228,37852.009,40773.024,47645.47,23929.196
3.852,09-20-2026 18:37:35:760,-170882.841,-56583.665,8071.93,-14580.892,35480.936,38479.735,49521.586,23269.373
3.856,09-20-2026 18:37:35:764,-227781.621,-129416.735,-5160.437,-96189.436,34265.761,36186.446,52619.359,24369.079
3.86,09-20-2026 18:37:35:768,-257618.786,-195421.704,-4711.882,-152510.825,35658.766,36721.547,53186.557,26040.632
3.864,09-20-2026 18:37:35:772,-247904.36,-157867.152,8296.208,-99637.684,37614.901,39397.051,50263.307,25666.732
3.868,09-20-2026 18:37:35:776,-181291.155,-67963.832,16594.472,-8833.812,37940.924,40849.467,47689.101,24083.155
3.872,09-20-2026 18:37:35:780,-170882.841,-55445.648,5380.601,-14580.892,35540.212,38556.178,49521.586,23335.355
3.876,09-20-2026 18:37:35:784,-227781.621,-127140.701,-6730.378,-95040.02,34295.399,36262.889,52619.359,24413.067
3.88,09-20-2026 18:37:35:788,-256924.898,-193145.671,-5833.269,-151361.409,35629.128,36721.547,53186.557,26040.632
3.884,09-20-2026 18:37:35:792,-247904.36,-156729.136,8296.208,-98488.268,37614.901,39397.051,50263.307,25644.738
3.888,09-20-2026 18:37:35:796,-181291.155,-66825.815,19061.523,-8833.812,38000.201,40887.689,47689.101,24083.155
3.892,09-20-2026 18:37:35:800,-169495.066,-53169.614,8296.208,-13431.476,35599.489,38594.4,49477.956,23247.379
3.896,09-20-2026 18:37:35:804,-225699.958,-123726.651,-4936.159,-93890.604,34295.399,36262.889,52532.098,24281.102
3.9,09-20-2026 18:37:35:808,-256924.898,-190869.637,-5160.437,-150211.993,35629.128,36721.547,53186.557,25952.655
3.904,09-20-2026 18:37:35:812,-245981.127,-152567.464,9244.86,-96295.651,37718.658,39487.709,50209.707,25610.316
3.908,09-20-2026 18:37:35:816,-159178.127,-43737.715,22913.399,8682.267,38557.653,41546.752,46952.387,23874.837
3.912,09-20-2026 18:37:35:820,-135066.183,-17890.649,10953.428,9962.485,35586.212,38941.433,48856.667,22521.752
3.916,09-20-2026 18:37:35:824,-210295.449,-102233.705,-5155.922,-86053.903,34117.971,36210.05,52615.112,23786.592
3.92,09-20-2026 18:37:35:828,-255625.904,-174333.414,-4911.841,-150064.829,35586.212,36714.305,53316.689,25227.922
3.924,09-20-2026 18:37:35:832,-245016.649,-141684.489,8756.698,-98856.088,37683.7,39487.709,50410.157,24316.06
3.928,09-20-2026 18:37:35:836,-170751.86,-53260.318,18519.94,-10521.011,38068.239,41084.518,47804.302,22521.752
3.932,09-20-2026 18:37:35:840,-160142.605,-42377.343,8268.536,-14361.666,35621.17,38773.348,49608.356,22109.943
3.936,09-20-2026 18:37:35:844,-220904.704,-114477.052,-4911.841,-95015.433,34327.72,36420.156,52665.225,23463.028
3.94,09-20-2026 18:37:35:848,-256590.382,-182495.646,-5155.922,-152625.266,35656.129,36840.369,53316.689,24786.699
3.944,09-20-2026 18:37:35:852,-246945.604,-147125.977,8268.536,-101416.525,37683.7,39529.731,50360.045,23933.667
3.948,09-20-2026 18:37:35:856,-176538.727,-58701.805,18519.94,-9240.792,38103.198,41126.539,47754.189,22286.433
3.952,09-20-2026 18:37:35:860,-164964.994,-46458.458,8512.617,-9240.792,35726.045,38857.39,49558.243,22168.773
3.956,09-20-2026 18:37:35:864,-223798.138,-117197.796,-4667.759,-89894.559,34467.552,36504.198,52665.225,23639.518
3.96,09-20-2026 18:37:35:868,-256590.382,-183856.017,-4667.759,-150064.829,35726.045,36882.39,53266.576,25227.922
3.964,09-20-2026 18:37:35:872,-245981.127,-145765.605,9977.103,-96295.651,37788.574,39571.752,50209.707,24669.039
3.968,09-20-2026 18:37:35:876,-169787.382,-50539.574,20960.751,2281.174,38243.03,41210.582,47453.513,23080.635
3.972,09-20-2026 18:37:35:880,-152426.783,-31494.368,10465.266,3561.393,35761.003,38899.411,49207.455,22492.337
3.976,09-20-2026 18:37:35:884,-212224.404,-98152.59,-3691.435,-78372.592,34397.636,36504.198,52214.211,23639.518
3.98,09-20-2026 18:37:35:888,-255625.904,-162090.068,-3935.516,-141103.299,35656.129,36840.369,52865.675,25374.997
3.984,09-20-2026 18:37:35:892,-238265.304,-123999.655,9000.779,-91174.777,37718.658,39613.773,50009.257,25051.433
3.988,09-20-2026 18:37:35:896,-153391.26,-30133.996,17787.697,4841.611,38173.114,41336.646,47403.401,23610.103
3.992,09-20-2026 18:37:35:900,-134101.705,-11088.79,6315.888,8682.267,35691.087,39151.539,49057.117,22933.56
3.996,09-20-2026 18:37:35:904,-196792.76,-75026.268,-7352.651,-71971.5,34222.845,36714.305,52063.874,24021.912
4,09-20-2026 18:37:35:908,-252732.471,-140324.118,-8084.894,-137262.644,35376.464,36924.411,52865.675,25845.635
4.004,09-20-2026 18:37:35:912,-229542.894,-106386.302,4750.237,-91956.91,37436.669,39675.464,50127.497,26235.047
4.008,09-20-2026 18:37:35:916,-143644.246,-18181.579,13466.434,5005.763,37974.586,41519.438,47592.81,25488.722
4.012,09-20-2026 18:37:35:920,-125390.783,-213.951,2882.481,12188.183,35592.381,39384.31,49235.663,25787.252
4.016,09-20-2026 18:37:35:924,-190888.502,-65550.782,-10191.814,-70409.649,34209.166,37055.08,52286.676,27429.167
4.02,09-20-2026 18:37:35:928,-252091.289,-130887.613,-11436.985,-142233.851,35515.536,37346.233,53131.572,29668.141
4.024,09-20-2026 18:37:35:932,-229542.894,-101486.039,1014.724,-102730.54,37436.669,40063.669,50549.945,30414.466
4.028,09-20-2026 18:37:35:936,-152234.111,-23081.842,9730.921,-11154.683,37820.895,42004.695,48296.889,31011.526
4.032,09-20-2026 18:37:35:940,-136128.114,-6747.634,-2098.203,5005.763,35131.31,40063.669,49658.111,30414.466
4.036,09-20-2026 18:37:35:944,-193035.968,-63917.361,-15795.084,-65022.834,33594.404,37637.387,52239.737,30414.466
4.04,09-20-2026 18:37:35:948,-251017.556,-121087.089,-17040.255,-135051.43,34593.393,37734.439,52990.756,30712.996
4.044,09-20-2026 18:37:35:952,-232764.093,-98219.198,-3965.959,-108117.355,36668.216,40354.823,50878.516,29369.611
4.048,09-20-2026 18:37:35:956,-167266.374,-32882.367,20937.46,-25519.523,37052.442,41907.643,48860.153,25787.252
4.052,09-20-2026 18:37:35:960,-155455.31,-21448.421,32143.999,-9359.078,33748.094,38704.951,49892.804,21309.304
4.056,09-20-2026 18:37:35:964,-210215.698,-75351.307,29031.072,-75796.464,31212.199,35308.157,52051.983,18025.475
4.06,09-20-2026 18:37:35:968,-258533.687,-130887.613,34011.755,-145825.061,31673.271,34822.9,52568.308,17428.415
4.064,09-20-2026 18:37:35:972,-245648.89,-109653.143,45840.88,-124277.8,33594.404,37055.08,50456.068,18622.535
4.068,09-20-2026 18:37:35:976,-184446.104,-45949.733,55179.662,-47066.784,34132.321,38316.746,48343.828,18473.27
4.072,09-20-2026 18:37:35:980,-171561.306,-34515.787,51444.149,-30906.338,31442.735,35599.31,49282.601,15786.501
4.076,09-20-2026 18:37:35:984,-220953.029,-88418.673,42727.952,-93752.515,29521.603,32493.67,51441.78,14293.851
4.08,09-20-2026 18:37:35:988,-261754.887,-143954.98,38992.439,-161985.506,30366.901,32299.567,52051.983,15487.971
4.084,09-20-2026 18:37:35:992,-253165.022,-122720.509,42727.952,-133255.825,32672.26,34725.849,49845.865,17428.415
4.088,09-20-2026 18:37:35:996,-189814.769,-52483.416,45218.294,-45271.179,33671.249,36472.772,47592.81,17577.68
4.092,09-20-2026 18:37:36:000,-164045.175,-27982.104,20937.46,-14745.893,31365.89,34337.644,48343.828,14741.646
4.096,09-20-2026 18:37:36:004,-216658.097,-98219.198,-11436.985,-97343.725,28215.233,30455.593,51629.535,12054.877
4.1,09-20-2026 18:37:36:008,-261754.887,-207658.39,-23888.695,-215853.657,28906.841,29679.183,53554.02,13995.321
4.104,09-20-2026 18:37:36:012,-256536.425,-178765.81,-3331.975,-175973.585,33229.891,34160.484,49816.138,18177.288
4.108,09-20-2026 18:37:36:016,-171341.946,-40307.035,14996.456,-16293.394,35409.097,37843.426,45294.916,19315.081
4.112,09-20-2026 18:37:36:020,-131250.427,4598.514,-2437.905,30195.776,31050.686,34480.74,46999.639,15197.353
4.116,09-20-2026 18:37:36:024,-210180.606,-94567.906,-30601.103,-87037.782,27704.048,29837.031,51594.979,13355.212
4.12,09-20-2026 18:37:36:028,-261547.865,-212444.971,-37306.626,-214377.682,29104.966,29676.903,53522.057,16335.147
4.124,09-20-2026 18:37:36:032,-256536.425,-178765.81,-11378.603,-167888.512,33696.864,34640.868,49445.546,19856.887
4.128,09-20-2026 18:37:36:036,-163824.786,-34693.841,10973.142,-6187.052,35798.241,38403.873,44850.206,20236.152
4.132,09-20-2026 18:37:36:040,-124986.127,10211.707,-4673.079,36259.581,31362.001,34720.932,46629.047,15088.992
4.136,09-20-2026 18:37:36:044,-206422.026,-92696.842,-31942.207,-85016.514,28015.364,29917.095,51372.624,13788.657
4.14,09-20-2026 18:37:36:048,-261547.865,-212444.971,-36412.556,-210335.146,29494.11,29837.031,53373.82,17310.398
4.144,09-20-2026 18:37:36:052,-255283.565,-175023.681,-8249.358,-155760.903,34163.837,35201.315,49074.954,19585.984
4.148,09-20-2026 18:37:36:056,-157560.487,-29080.648,16784.595,5940.557,36031.727,39204.513,44405.495,18610.733
4.152,09-20-2026 18:37:36:060,-114963.247,17695.965,-1990.87,42323.386,31828.974,35361.443,46258.455,15414.076
4.156,09-20-2026 18:37:36:064,-200157.726,-87083.648,-32836.277,-80973.978,28871.48,30397.478,51150.268,15305.715
4.16,09-20-2026 18:37:36:068,-260295.005,-210573.907,-39094.766,-208313.877,30428.056,30077.223,53151.465,18231.469
4.164,09-20-2026 18:37:36:072,-254030.705,-171281.552,-8249.358,-151718.366,34864.296,35601.635,48852.599,20236.152
4.168,09-20-2026 18:37:36:076,-150043.327,-23467.454,17678.665,7961.825,36810.015,39764.96,44109.022,19098.359
4.172,09-20-2026 18:37:36:080,-107446.087,23309.159,-649.765,40302.118,32685.09,35841.827,46110.218,15522.437
4.176,09-20-2026 18:37:36:084,-195146.286,-81470.455,-27471.859,-80973.978,29805.425,30717.734,51076.15,15359.895
4.18,09-20-2026 18:37:36:088,-260295.005,-208702.842,-31495.173,-204271.341,31284.172,30317.414,53077.346,18177.288
4.184,09-20-2026 18:37:36:092,-252777.845,-171281.552,-4673.079,-145654.562,35642.583,35761.763,48778.48,18827.456
4.188,09-20-2026 18:37:36:096,-147537.607,-21596.39,17678.665,12004.362,37588.303,39845.024,44109.022,16226.785
4.192,09-20-2026 18:37:36:100,-102434.647,25180.224,691.339,42323.386,33463.378,35921.891,46036.1,13680.296
4.196,09-20-2026 18:37:36:104,-191387.706,-81470.455,-26130.754,-82995.246,30350.227,30717.734,51150.268,14547.186
