PseudoTimeSec,PseudoTimestamp,UF-FP1,UF-FP2,UF-O1,UF-O2,UF-C3,UF-CZ,UF-FZ,UF-C4
0.004,09-20-2026 18:33:46:271,-182272.039,-101520.148,78987.757,-68300.091,12641.074,78960.041,78889.275,53341.499
0.008,09-20-2026 18:33:46:275,-182170.875,-100917.545,82017.312,-48074.892,44733.172,81987.584,81916.819,68331.563
0.012,09-20-2026 18:33:46:279,-182040.341,-91953.825,86729.954,-13017.879,75822.392,86697.097,86626.331,75442.234
0.016,09-20-2026 18:33:46:283,-182056.657,-93460.333,86527.984,-11669.533,62784.977,86495.261,86424.495,63142.695
0.02,09-20-2026 18:33:46:287,-182190.455,-101218.847,81815.342,-44928.75,25678.489,81785.748,81714.983,51035.336
0.024,09-20-2026 18:33:46:291,-182239.405,-101520.148,78718.463,-68749.54,12641.074,78690.926,78620.16,53341.499
0.028,09-20-2026 18:33:46:295,-182134.978,-100917.545,81815.342,-48074.892,45234.611,81785.748,81714.983,68523.743
0.032,09-20-2026 18:33:46:299,-182004.444,-92405.777,86527.984,-13017.879,75822.392,86495.261,86424.495,75442.234
0.036,09-20-2026 18:33:46:303,-182020.76,-93761.634,86393.337,-11669.533,63787.855,86360.703,86289.938,63334.875
0.04,09-20-2026 18:33:46:307,-182154.558,-101143.521,81680.695,-44928.75,26179.928,81651.191,81580.425,51035.336
0.044,09-20-2026 18:33:46:311,-182200.245,-101444.823,78583.816,-68749.54,13142.513,78556.368,78485.603,53149.319
0.048,09-20-2026 18:33:46:315,-182092.554,-100917.545,81613.372,-48524.341,45736.05,81583.912,81513.146,68331.563
0.052,09-20-2026 18:33:46:319,-181962.02,-92857.73,86393.337,-13017.879,76323.831,86360.703,86289.938,75442.234
0.056,09-20-2026 18:33:46:323,-181981.6,-94288.912,86191.366,-11669.533,63787.855,86158.867,86088.101,63142.695
0.06,09-20-2026 18:33:46:327,-182112.134,-101143.521,81478.725,-44928.75,26681.367,81449.354,81378.589,51035.336
0.064,09-20-2026 18:33:46:331,-182154.558,-101369.497,78381.846,-68749.54,13643.952,78354.532,78283.766,53341.499
0.068,09-20-2026 18:33:46:335,-182046.867,-100842.22,81411.401,-48524.341,46237.489,81382.076,81311.31,68523.743
0.072,09-20-2026 18:33:46:339,-181913.07,-93385.007,86191.366,-13467.328,76323.831,86158.867,86088.101,75442.234
0.07600001,09-20-2026 18:33:46:343,-181929.386,-94740.864,85989.396,-12118.982,64289.294,85957.031,85886.265,63142.695
0.08000001,09-20-2026 18:33:46:347,-182059.921,-101068.196,81209.431,-45378.199,27182.806,81180.239,81109.474,51035.336
0.08400001,09-20-2026 18:33:46:351,-182102.344,-101294.172,78179.875,-68749.54,14145.391,78152.696,78081.93,53341.499
0.08800001,09-20-2026 18:33:46:355,-181991.39,-100842.22,81209.431,-48524.341,46738.928,81180.239,81109.474,68523.743
0.09200001,09-20-2026 18:33:46:359,-181857.593,-93761.634,85989.396,-13017.879,76323.831,85957.031,85886.265,75442.234
0.096,09-20-2026 18:33:46:363,-181873.909,-95268.142,85720.102,-12118.982,64289.294,85687.916,85617.15,63142.695
0.1,09-20-2026 18:33:46:367,-182004.444,-101068.196,81007.46,-45378.199,27182.806,80978.403,80907.638,51035.336
0.104,09-20-2026 18:33:46:371,-178225.971,-94568.04,65621.905,-71419.948,24449.634,65591.507,65520.116,52820.659
0.108,09-20-2026 18:33:46:375,-178077.197,-94407.644,69068.366,-50779.811,56857.429,69048.249,68974.801,67186.572
0.112,09-20-2026 18:33:46:379,-177937.723,-94271.924,73563.748,-16809.585,72413.17,73557.043,73480.913,71137.198
0.116,09-20-2026 18:33:46:383,-177937.723,-94259.586,72664.672,-20679.61,62906.884,72580.138,72504.589,59285.32
0.12,09-20-2026 18:33:46:387,-178021.407,-94308.939,67719.751,-54219.834,32659.609,67695.611,67622.968,48510.885
0.124,09-20-2026 18:33:46:391,-178021.407,-94259.586,65172.367,-71419.948,24881.738,65140.628,65069.504,53000.233
0.128,09-20-2026 18:33:46:395,-177863.336,-94099.19,68543.904,-50779.811,56857.429,68597.37,68524.19,67186.572
0.132,09-20-2026 18:33:46:399,-177714.563,-93951.132,73114.21,-16809.585,71981.066,73106.164,73030.302,70957.624
0.136,09-20-2026 18:33:46:403,-177714.563,-93951.132,72140.211,-21109.613,61178.468,72129.258,72053.977,59105.746
0.14,09-20-2026 18:33:46:407,-177798.248,-94000.485,67270.212,-53789.831,28770.674,67244.731,67172.357,48331.311
0.144,09-20-2026 18:33:46:411,-177788.949,-93951.132,64722.829,-71419.948,20128.595,64689.748,64618.893,52820.659
0.148,09-20-2026 18:33:46:415,-177640.176,-93778.398,68244.212,-50779.811,52536.39,68221.637,68148.681,67006.998
0.152,09-20-2026 18:33:46:419,-177491.403,-93642.678,72739.595,-16809.585,70684.754,72730.431,72729.894,70778.051
0.156,09-20-2026 18:33:46:423,-177491.403,-93630.34,71765.595,-21109.613,58585.844,71753.525,71678.468,59105.746
0.16,09-20-2026 18:33:46:427,-177575.088,-93679.693,66820.674,-54219.834,25313.842,66793.852,66721.745,48331.311
0.164,09-20-2026 18:33:46:431,-177575.088,-93630.34,64348.214,-70989.945,17535.972,64314.015,64243.384,52820.659
0.168,09-20-2026 18:33:46:435,-177417.016,-93469.944,67794.674,-50779.811,50807.974,67770.757,67773.171,66647.85
0.172,09-20-2026 18:33:46:439,-177268.243,-93321.886,72439.903,-16809.585,69820.546,72429.844,72354.385,70418.903
0.176,09-20-2026 18:33:46:443,-177268.243,-93309.548,71390.98,-21109.613,57721.637,71377.793,71302.959,58926.172
0.18,09-20-2026 18:33:46:447,-177361.226,-93358.9,66520.982,-53789.831,24881.738,66493.266,66421.338,48331.311
0.184,09-20-2026 18:33:46:451,-177351.928,-93309.548,64048.521,-70989.945,17535.972,64013.429,63942.976,52820.659
0.188,09-20-2026 18:33:46:455,-177193.857,-93149.152,67569.905,-50349.808,50807.974,67545.318,67472.764,66468.277
0.192,09-20-2026 18:33:46:459,-177045.083,-93001.094,72140.211,-16809.585,69820.546,72129.258,72053.977,70239.329
0.196,09-20-2026 18:33:46:463,-177045.083,-93001.094,71091.288,-21109.613,57721.637,71077.206,71002.551,58746.598
0.2,09-20-2026 18:33:46:467,-177128.768,-93050.446,66221.29,-54219.834,25313.842,66192.68,66120.93,48331.311
0.204,09-20-2026 18:33:46:471,-179192.594,-96018.221,68084.665,-72242.492,22746.297,68053.73,67982.071,52786.371
0.208,09-20-2026 18:33:46:475,-179052.002,-95870.029,71435.147,-50598.449,55451.012,71411.901,71340.242,67604.863
0.212,09-20-2026 18:33:46:479,-178911.409,-95733.237,76032.32,-16144.665,74024.06,76019.624,75947.964,72481.835
0.216,09-20-2026 18:33:46:483,-178919.679,-95733.237,75175.22,-19236.671,63526.251,75160.557,75088.897,59914.253
0.22,09-20-2026 18:33:46:487,-179010.651,-95790.234,70266.374,-53248.74,31629.06,70240.446,70168.787,48659.703
0.224,09-20-2026 18:33:46:491,-179018.921,-95756.036,67617.156,-72242.492,23150.059,67585.149,67513.489,52786.371
0.228,09-20-2026 18:33:46:495,-178870.059,-95596.444,70967.638,-50598.449,55854.774,70943.319,70871.66,67417.287
0.232,09-20-2026 18:33:46:499,-178729.466,-95459.651,75564.811,-16144.665,74024.06,75551.042,75479.382,72294.259
0.236,09-20-2026 18:33:46:503,-178729.466,-95448.252,74707.711,-19678.386,63526.251,74691.975,74620.315,59726.678
0.24,09-20-2026 18:33:46:507,-178820.438,-95505.249,69798.865,-53248.74,32032.821,69771.864,69700.205,48659.703
0.244,09-20-2026 18:33:46:511,-178828.708,-95471.051,67071.729,-72242.492,23553.821,67038.47,66966.81,52973.947
0.248,09-20-2026 18:33:46:515,-178679.845,-95311.459,70500.129,-50598.449,56258.536,70474.737,70403.078,67417.287
0.252,09-20-2026 18:33:46:519,-178539.253,-95174.667,75097.302,-16586.38,73620.298,75082.46,75010.8,72106.683
0.256,09-20-2026 18:33:46:523,-178539.253,-95163.267,74162.283,-20120.102,63526.251,74145.296,74073.636,59726.678
0.26,09-20-2026 18:33:46:527,-178630.224,-95220.264,69253.438,-53690.455,32032.821,69225.185,69153.526,48659.703
0.264,09-20-2026 18:33:46:531,-178638.494,-95174.667,66604.22,-72242.492,23957.583,66569.888,66498.228,52973.947
0.268,09-20-2026 18:33:46:535,-178489.632,-95015.075,70032.62,-50598.449,56258.536,70006.155,69934.496,67417.287
0.272,09-20-2026 18:33:46:539,-178340.769,-94878.283,74551.874,-16586.38,73216.536,74613.878,74542.218,71731.531
0.276,09-20-2026 18:33:46:543,-178340.769,-94866.883,73616.856,-20120.102,63526.251,73598.617,73526.957,59539.102
0.28,09-20-2026 18:33:46:547,-178431.741,-94923.88,68708.011,-53248.74,32436.583,68678.506,68606.847,48659.703
0.284,09-20-2026 18:33:46:551,-178431.741,-94878.283,66136.711,-71800.777,23957.583,66101.306,66029.646,52973.947
0.288,09-20-2026 18:33:46:555,-178291.148,-94718.691,69565.111,-50598.449,56662.298,69537.573,69465.914,67417.287
0.292,09-20-2026 18:33:46:559,-178142.286,-94570.499,74084.365,-17028.095,72812.775,74067.199,73995.539,71543.955
0.296,09-20-2026 18:33:46:563,-178142.286,-94570.499,73071.429,-20561.817,63122.489,73051.938,72980.278,59351.526
0.3,09-20-2026 18:33:46:567,-178233.257,-94616.097,68240.502,-53690.455,32436.583,68209.924,68138.265,48659.703
0.304,09-20-2026 18:33:46:571,-178225.971,-94568.04,65621.905,-71419.948,24449.634,65591.507,65520.116,52820.659
0.308,09-20-2026 18:33:46:575,-178077.197,-94407.644,69068.366,-50779.811,56857.429,69048.249,68974.801,67186.572
0.312,09-20-2026 18:33:46:579,-177937.723,-94271.924,73563.748,-16809.585,72413.17,73557.043,73480.913,71137.198
0.316,09-20-2026 18:33:46:583,-177937.723,-94259.586,72664.672,-20679.61,62906.884,72580.138,72504.589,59285.32
0.32,09-20-2026 18:33:46:587,-178021.407,-94308.939,67719.751,-54219.834,32659.609,67695.611,67622.968,48510.885
0.324,09-20-2026 18:33:46:591,-178021.407,-94259.586,65172.367,-71419.948,24881.738,65140.628,65069.504,53000.233
0.328,09-20-2026 18:33:46:595,-177863.336,-94099.19,68543.904,-50779.811,56857.429,68597.37,68524.19,67186.572
0.332,09-20-2026 18:33:46:599,-177714.563,-93951.132,73114.21,-16809.585,71981.066,73106.164,73030.302,70957.624
0.336,09-20-2026 18:33:46:603,-177714.563,-93951.132,72140.211,-21109.613,61178.468,72129.258,72053.977,59105.746
0.34,09-20-2026 18:33:46:607,-177798.248,-94000.485,67270.212,-53789.831,28770.674,67244.731,67172.357,48331.311
0.344,09-20-2026 18:33:46:611,-177788.949,-93951.132,64722.829,-71419.948,20128.595,64689.748,64618.893,52820.659
0.348,09-20-2026 18:33:46:615,-177640.176,-93778.398,68244.212,-50779.811,52536.39,68221.637,68148.681,67006.998
0.352,09-20-2026 18:33:46:619,-177491.403,-93642.678,72739.595,-16809.585,70684.754,72730.431,72729.894,70778.051
0.356,09-20-2026 18:33:46:623,-177491.403,-93630.34,71765.595,-21109.613,58585.844,71753.525,71678.468,59105.746
0.36,09-20-2026 18:33:46:627,-177575.088,-93679.693,66820.674,-54219.834,25313.842,66793.852,66721.745,48331.311
0.364,09-20-2026 18:33:46:631,-177575.088,-93630.34,64348.214,-70989.945,17535.972,64314.015,64243.384,52820.659
0.368,09-20-2026 18:33:46:635,-177417.016,-93469.944,67794.674,-50779.811,50807.974,67770.757,67773.171,66647.85
0.372,09-20-2026 18:33:46:639,-177268.243,-93321.886,72439.903,-16809.585,69820.546,72429.844,72354.385,70418.903
0.376,09-20-2026 18:33:46:643,-177268.243,-93309.548,71390.98,-21109.613,57721.637,71377.793,71302.959,58926.172
0.38,09-20-2026 18:33:46:647,-177361.226,-93358.9,66520.982,-53789.831,24881.738,66493.266,66421.338,48331.311
0.384,09-20-2026 18:33:46:651,-177351.928,-93309.548,64048.521,-70989.945,17535.972,64013.429,63942.976,52820.659
0.388,09-20-2026 18:33:46:655,-177193.857,-93149.152,67569.905,-50349.808,50807.974,67545.318,67472.764,66468.277
0.392,09-20-2026 18:33:46:659,-177045.083,-93001.094,72140.211,-16809.585,69820.546,72129.258,72053.977,70239.329
0.396,09-20-2026 18:33:46:663,-177045.083,-93001.094,71091.288,-21109.613,57721.637,71077.206,71002.551,58746.598
0.4,09-20-2026 18:33:46:667,-177128.768,-93050.446,66221.29,-54219.834,25313.842,66192.68,66120.93,48331.311
0.404,09-20-2026 18:33:46:671,-179192.594,-96018.221,68084.665,-72242.492,22746.297,68053.73,67982.071,52786.371
0.408,09-20-2026 18:33:46:675,-179052.002,-95870.029,71435.147,-50598.449,55451.012,71411.901,71340.242,67604.863
0.412,09-20-2026 18:33:46:679,-178911.409,-95733.237,76032.32,-16144.665,74024.06,76019.624,75947.964,72481.835
0.416,09-20-2026 18:33:46:683,-178919.679,-95733.237,75175.22,-19236.671,63526.251,75160.557,75088.897,59914.253
0.42,09-20-2026 18:33:46:687,-179010.651,-95790.234,70266.374,-53248.74,31629.06,70240.446,70168.787,48659.703
0.424,09-20-2026 18:33:46:691,-179018.921,-95756.036,67617.156,-72242.492,23150.059,67585.149,67513.489,52786.371
0.428,09-20-2026 18:33:46:695,-178870.059,-95596.444,70967.638,-50598.449,55854.774,70943.319,70871.66,67417.287
0.432,09-20-2026 18:33:46:699,-178729.466,-95459.651,75564.811,-16144.665,74024.06,75551.042,75479.382,72294.259
0.436,09-20-2026 18:33:46:703,-178729.466,-95448.252,74707.711,-19678.386,63526.251,74691.975,74620.315,59726.678
0.44,09-20-2026 18:33:46:707,-178820.438,-95505.249,69798.865,-53248.74,32032.821,69771.864,69700.205,48659.703
0.444,09-20-2026 18:33:46:711,-178828.708,-95471.051,67071.729,-72242.492,23553.821,67038.47,66966.81,52973.947
0.448,09-20-2026 18:33:46:715,-178679.845,-95311.459,70500.129,-50598.449,56258.536,70474.737,70403.078,67417.287
0.452,09-20-2026 18:33:46:719,-178539.253,-95174.667,75097.302,-16586.38,73620.298,75082.46,75010.8,72106.683
0.456,09-20-2026 18:33:46:723,-178539.253,-95163.267,74162.283,-20120.102,63526.251,74145.296,74073.636,59726.678
0.46,09-20-2026 18:33:46:727,-178630.224,-95220.264,69253.438,-53690.455,32032.821,69225.185,69153.526,48659.703
0.464,09-20-2026 18:33:46:731,-178638.494,-95174.667,66604.22,-72242.492,23957.583,66569.888,66498.228,52973.947
0.468,09-20-2026 18:33:46:735,-178489.632,-95015.075,70032.62,-50598.449,56258.536,70006.155,69934.496,67417.287
0.472,09-20-2026 18:33:46:739,-178340.769,-94878.283,74551.874,-16586.38,73216.536,74613.878,74542.218,71731.531
0.476,09-20-2026 18:33:46:743,-178340.769,-94866.883,73616.856,-20120.102,63526.251,73598.617,73526.957,59539.102
0.48,09-20-2026 18:33:46:747,-178431.741,-94923.88,68708.011,-53248.74,32436.583,68678.506,68606.847,48659.703
0.484,09-20-2026 18:33:46:751,-178431.741,-94878.283,66136.711,-71800.777,23957.583,66101.306,66029.646,52973.947
0.488,09-20-2026 18:33:46:755,-178291.148,-94718.691,69565.111,-50598.449,56662.298,69537.573,69465.914,67417.287
0.492,09-20-2026 18:33:46:759,-178142.286,-94570.499,74084.365,-17028.095,72812.775,74067.199,73995.539,71543.955
0.496,09-20-2026 18:33:46:763,-178142.286,-94570.499,73071.429,-20561.817,63122.489,73051.938,72980.278,59351.526
0.5,09-20-2026 18:33:46:767,-178233.257,-94616.097,68240.502,-53690.455,32436.583,68209.924,68138.265,48659.703
0.504,09-20-2026 18:33:46:771,-178225.971,-94568.04,65621.905,-71419.948,24449.634,65591.507,65520.116,52820.659
0.508,09-20-2026 18:33:46:775,-178077.197,-94407.644,69068.366,-50779.811,56857.429,69048.249,68974.801,67186.572
0.512,09-20-2026 18:33:46:779,-177937.723,-94271.924,73563.748,-16809.585,72413.17,73557.043,73480.913,71137.198
0.516,09-20-2026 18:33:46:783,-177937.723,-94259.586,72664.672,-20679.61,62906.884,72580.138,72504.589,59285.32
0.52,09-20-2026 18:33:46:787,-178021.407,-94308.939,67719.751,-54219.834,32659.609,67695.611,67622.968,48510.885
0.524,09-20-2026 18:33:46:791,-178021.407,-94259.586,65172.367,-71419.948,24881.738,65140.628,65069.504,53000.233
0.528,09-20-2026 18:33:46:795,-177863.336,-94099.19,68543.904,-50779.811,56857.429,68597.37,68524.19,67186.572
0.532,09-20-2026 18:33:46:799,-177714.563,-93951.132,73114.21,-16809.585,71981.066,73106.164,73030.302,70957.624
0.536,09-20-2026 18:33:46:803,-177714.563,-93951.132,72140.211,-21109.613,61178.468,72129.258,72053.977,59105.746
0.54,09-20-2026 18:33:46:807,-177798.248,-94000.485,67270.212,-53789.831,28770.674,67244.731,67172.357,48331.311
0.544,09-20-2026 18:33:46:811,-177788.949,-93951.132,64722.829,-71419.948,20128.595,64689.748,64618.893,52820.659
0.548,09-20-2026 18:33:46:815,-177640.176,-93778.398,68244.212,-50779.811,52536.39,68221.637,68148.681,67006.998
0.552,09-20-2026 18:33:46:819,-177491.403,-93642.678,72739.595,-16809.585,70684.754,72730.431,72729.894,70778.051
0.5560001,09-20-2026 18:33:46:823,-177491.403,-93630.34,71765.595,-21109.613,58585.844,71753.525,71678.468,59105.746
0.56,09-20-2026 18:33:46:827,-177575.088,-93679.693,66820.674,-54219.834,25313.842,66793.852,66721.745,48331.311
0.564,09-20-2026 18:33:46:831,-177575.088,-93630.34,64348.214,-70989.945,17535.972,64314.015,64243.384,52820.659
0.568,09-20-2026 18:33:46:835,-177417.016,-93469.944,67794.674,-50779.811,50807.974,67770.757,67773.171,66647.85
0.572,09-20-2026 18:33:46:839,-177268.243,-93321.886,72439.903,-16809.585,69820.546,72429.844,72354.385,70418.903
0.576,09-20-2026 18:33:46:843,-177268.243,-93309.548,71390.98,-21109.613,57721.637,71377.793,71302.959,58926.172
0.58,09-20-2026 18:33:46:847,-177361.226,-93358.9,66520.982,-53789.831,24881.738,66493.266,66421.338,48331.311
0.5840001,09-20-2026 18:33:46:851,-177351.928,-93309.548,64048.521,-70989.945,17535.972,64013.429,63942.976,52820.659
0.588,09-20-2026 18:33:46:855,-177193.857,-93149.152,67569.905,-50349.808,50807.974,67545.318,67472.764,66468.277
0.592,09-20-2026 18:33:46:859,-177045.083,-93001.094,72140.211,-16809.585,69820.546,72129.258,72053.977,70239.329
0.596,09-20-2026 18:33:46:863,-177045.083,-93001.094,71091.288,-21109.613,57721.637,71077.206,71002.551,58746.598
0.6,09-20-2026 18:33:46:867,-177128.768,-93050.446,66221.29,-54219.834,25313.842,66192.68,66120.93,48331.311
0.604,09-20-2026 18:33:46:871,-179192.594,-96018.221,68084.665,-72242.492,22746.297,68053.73,67982.071,52786.371
0.608,09-20-2026 18:33:46:875,-179052.002,-95870.029,71435.147,-50598.449,55451.012,71411.901,71340.242,67604.863
0.612,09-20-2026 18:33:46:879,-178911.409,-95733.237,76032.32,-16144.665,74024.06,76019.624,75947.964,72481.835
0.6160001,09-20-2026 18:33:46:883,-178919.679,-95733.237,75175.22,-19236.671,63526.251,75160.557,75088.897,59914.253
0.62,09-20-2026 18:33:46:887,-179010.651,-95790.234,70266.374,-53248.74,31629.06,70240.446,70168.787,48659.703
0.624,09-20-2026 18:33:46:891,-179018.921,-95756.036,67617.156,-72242.492,23150.059,67585.149,67513.489,52786.371
0.628,09-20-2026 18:33:46:895,-178870.059,-95596.444,70967.638,-50598.449,55854.774,70943.319,70871.66,67417.287
0.632,09-20-2026 18:33:46:899,-178729.466,-95459.651,75564.811,-16144.665,74024.06,75551.042,75479.382,72294.259
0.636,09-20-2026 18:33:46:903,-178729.466,-95448.252,74707.711,-19678.386,63526.251,74691.975,74620.315,59726.678
0.64,09-20-2026 18:33:46:907,-178820.438,-95505.249,69798.865,-53248.74,32032.821,69771.864,69700.205,48659.703
0.6440001,09-20-2026 18:33:46:911,-178828.708,-95471.051,67071.729,-72242.492,23553.821,67038.47,66966.81,52973.947
0.648,09-20-2026 18:33:46:915,-178679.845,-95311.459,70500.129,-50598.449,56258.536,70474.737,70403.078,67417.287
0.652,09-20-2026 18:33:46:919,-178539.253,-95174.667,75097.302,-16586.38,73620.298,75082.46,75010.8,72106.683
0.656,09-20-2026 18:33:46:923,-178539.253,-95163.267,74162.283,-20120.102,63526.251,74145.296,74073.636,59726.678
0.66,09-20-2026 18:33:46:927,-178630.224,-95220.264,69253.438,-53690.455,32032.821,69225.185,69153.526,48659.703
0.664,09-20-2026 18:33:46:931,-178638.494,-95174.667,66604.22,-72242.492,23957.583,66569.888,66498.228,52973.947
0.668,09-20-2026 18:33:46:935,-178489.632,-95015.075,70032.62,-50598.449,56258.536,70006.155,69934.496,67417.287
0.6720001,09-20-2026 18:33:46:939,-178340.769,-94878.283,74551.874,-16586.38,73216.536,74613.878,74542.218,71731.531
0.6760001,09-20-2026 18:33:46:943,-178340.769,-94866.883,73616.856,-20120.102,63526.251,73598.617,73526.957,59539.102
0.68,09-20-2026 18:33:46:947,-178431.741,-94923.88,68708.011,-53248.74,32436.583,68678.506,68606.847,48659.703
0.684,09-20-2026 18:33:46:951,-178431.741,-94878.283,66136.711,-71800.777,23957.583,66101.306,66029.646,52973.947
0.688,09-20-2026 18:33:46:955,-178291.148,-94718.691,69565.111,-50598.449,56662.298,69537.573,69465.914,67417.287
0.692,09-20-2026 18:33:46:959,-178142.286,-94570.499,74084.365,-17028.095,72812.775,74067.199,73995.539,71543.955
0.696,09-20-2026 18:33:46:963,-178142.286,-94570.499,73071.429,-20561.817,63122.489,73051.938,72980.278,59351.526
0.7,09-20-2026 18:33:46:967,-178233.257,-94616.097,68240.502,-53690.455,32436.583,68209.924,68138.265,48659.703
0.7040001,09-20-2026 18:33:46:971,-178225.971,-94568.04,65621.905,-71419.948,24449.634,65591.507,65520.116,52820.659
0.708,09-20-2026 18:33:46:975,-178077.197,-94407.644,69068.366,-50779.811,56857.429,69048.249,68974.801,67186.572
0.712,09-20-2026 18:33:46:979,-177937.723,-94271.924,73563.748,-16809.585,72413.17,73557.043,73480.913,71137.198
0.716,09-20-2026 18:33:46:983,-177937.723,-94259.586,72664.672,-20679.61,62906.884,72580.138,72504.589,59285.32
0.72,09-20-2026 18:33:46:987,-178021.407,-94308.939,67719.751,-54219.834,32659.609,67695.611,67622.968,48510.885
0.724,09-20-2026 18:33:46:991,-178021.407,-94259.586,65172.367,-71419.948,24881.738,65140.628,65069.504,53000.233
0.728,09-20-2026 18:33:46:995,-177863.336,-94099.19,68543.904,-50779.811,56857.429,68597.37,68524.19,67186.572
0.7320001,09-20-2026 18:33:46:999,-177714.563,-93951.132,73114.21,-16809.585,71981.066,73106.164,73030.302,70957.624
0.7360001,09-20-2026 18:33:47:003,-177714.563,-93951.132,72140.211,-21109.613,61178.468,72129.258,72053.977,59105.746
0.74,09-20-2026 18:33:47:007,-177798.248,-94000.485,67270.212,-53789.831,28770.674,67244.731,67172.357,48331.311
0.744,09-20-2026 18:33:47:011,-177788.949,-93951.132,64722.829,-71419.948,20128.595,64689.748,64618.893,52820.659
0.748,09-20-2026 18:33:47:015,-177640.176,-93778.398,68244.212,-50779.811,52536.39,68221.637,68148.681,67006.998
0.752,09-20-2026 18:33:47:019,-177491.403,-93642.678,72739.595,-16809.585,70684.754,72730.431,72729.894,70778.051
0.756,09-20-2026 18:33:47:023,-177491.403,-93630.34,71765.595,-21109.613,58585.844,71753.525,71678.468,59105.746
0.7600001,09-20-2026 18:33:47:027,-177575.088,-93679.693,66820.674,-54219.834,25313.842,66793.852,66721.745,48331.311
0.7640001,09-20-2026 18:33:47:031,-177575.088,-93630.34,64348.214,-70989.945,17535.972,64314.015,64243.384,52820.659
0.768,09-20-2026 18:33:47:035,-177417.016,-93469.944,67794.674,-50779.811,50807.974,67770.757,67773.171,66647.85
0.772,09-20-2026 18:33:47:039,-177268.243,-93321.886,72439.903,-16809.585,69820.546,72429.844,72354.385,70418.903
0.776,09-20-2026 18:33:47:043,-177268.243,-93309.548,71390.98,-21109.613,57721.637,71377.793,71302.959,58926.172
0.78,09-20-2026 18:33:47:047,-177361.226,-93358.9,66520.982,-53789.831,24881.738,66493.266,66421.338,48331.311
0.784,09-20-2026 18:33:47:051,-177351.928,-93309.548,64048.521,-70989.945,17535.972,64013.429,63942.976,52820.659
0.788,09-20-2026 18:33:47:055,-177193.857,-93149.152,67569.905,-50349.808,50807.974,67545.318,67472.764,66468.277
0.7920001,09-20-2026 18:33:47:059,-177045.083,-93001.094,72140.211,-16809.585,69820.546,72129.258,72053.977,70239.329
0.7960001,09-20-2026 18:33:47:063,-177045.083,-93001.094,71091.288,-21109.613,57721.637,71077.206,71002.551,58746.598
0.8,09-20-2026 18:33:47:067,-177128.768,-93050.446,66221.29,-54219.834,25313.842,66192.68,66120.93,48331.311
0.804,09-20-2026 18:33:47:071,-177120.14,-92988.979,63674.443,-70518.994,18405.231,63643.91,63574.709,52798.352
0.808,09-20-2026 18:33:47:075,-176966.36,-92835.02,67217.552,-50609.312,51473.385,67197.301,67128.1,66188.388
0.812,09-20-2026 18:33:47:079,-176822.192,-92693.891,71761.974,-16720.491,69620.543,71754.911,71685.71,69840.216
0.816,09-20-2026 18:33:47:083,-176822.192,-92681.061,70760.661,-21380.204,58328.978,70673.444,70604.243,58710.835
0.8200001,09-20-2026 18:33:47:087,-176908.693,-92732.381,65831.118,-53998.194,26067.364,65806.844,65737.643,48277.041
0.8240001,09-20-2026 18:33:47:091,-176899.082,-92681.061,63366.346,-70518.994,18808.501,63334.92,63265.719,52624.455
0.8280001,09-20-2026 18:33:47:095,-176754.913,-92514.273,66909.455,-50185.701,52279.926,66888.311,66819.11,66014.491
0.832,09-20-2026 18:33:47:099,-176601.133,-92373.144,71453.878,-16720.491,69620.543,71445.921,71376.72,69666.319
0.836,09-20-2026 18:33:47:103,-176610.744,-92360.314,70375.54,-21803.814,58328.978,70364.454,70295.253,58536.939
0.84,09-20-2026 18:33:47:107,-176697.245,-92411.633,65445.997,-54421.804,26470.635,65420.606,65351.405,47929.248
0.844,09-20-2026 18:33:47:111,-176678.023,-92360.314,62981.226,-70518.994,19615.042,62948.681,62879.48,52624.455
0.848,09-20-2026 18:33:47:115,-176524.243,-92193.525,66524.335,-51032.922,52279.926,66502.072,66432.871,65492.802
0.8520001,09-20-2026 18:33:47:119,-176380.074,-92039.566,70991.733,-17567.711,69620.543,70982.435,70913.234,69144.63
0.8560001,09-20-2026 18:33:47:123,-176380.074,-92039.566,69836.372,-22651.034,58328.978,69823.72,69754.519,58363.042
0.86,09-20-2026 18:33:47:127,-176466.575,-92078.056,64906.828,-54845.414,26470.635,64879.872,64810.671,47755.351
0.864,09-20-2026 18:33:47:131,-176456.964,-92026.736,62442.057,-70518.994,20018.312,62407.948,62338.747,52276.662
0.868,09-20-2026 18:33:47:135,-176293.573,-91859.948,65908.142,-51456.532,52683.196,65884.091,65814.89,65145.009
0.872,09-20-2026 18:33:47:139,-176149.404,-91705.989,70452.564,-17991.321,69217.273,70441.701,70372.5,68796.837
0.876,09-20-2026 18:33:47:143,-176139.793,-91705.989,69297.203,-23074.645,58328.978,69282.987,69213.786,58015.249
0.8800001,09-20-2026 18:33:47:147,-176226.294,-91744.479,64367.66,-54845.414,27277.175,64339.139,64269.938,47755.351
0.8840001,09-20-2026 18:33:47:151,-176207.072,-91680.329,61979.912,-70095.384,20421.582,61944.462,61875.261,52102.766
0.8880001,09-20-2026 18:33:47:155,-176053.292,-91513.54,65445.997,-51032.922,53489.736,65497.853,65428.652,64623.319
0.892,09-20-2026 18:33:47:159,-175899.512,-91372.411,69913.396,-17991.321,68814.003,69978.216,69909.015,68449.043
0.896,09-20-2026 18:33:47:163,-175899.512,-91359.582,68835.058,-23074.645,58328.978,68819.501,68750.3,58015.249
0.9,09-20-2026 18:33:47:167,-175976.402,-91398.071,63905.515,-55269.024,27680.445,63875.653,63806.452,47755.351
0.904,09-20-2026 18:33:47:171,-175961.068,-91333.788,61464.213,-69738.784,21483.916,61436.362,61367.251,52177.51
0.9080001,09-20-2026 18:33:47:175,-175806.484,-91162.663,65020.822,-51071.143,53655.407,65005.042,64933.919,64203.866
0.9120001,09-20-2026 18:33:47:179,-175651.899,-91020.059,69446.825,-18199.863,68446.898,69446.065,69372.439,67891.949
0.9160001,09-20-2026 18:33:47:183,-175651.899,-91005.798,68340.325,-23475.501,58462.642,68256.506,68183.549,57789.809
0.92,09-20-2026 18:33:47:187,-175729.191,-91048.579,63361.071,-55129.326,28140.086,63339.658,63269.474,47527.319
0.924,09-20-2026 18:33:47:191,-175707.108,-90991.538,60989.998,-69738.784,21853.703,60960.539,60891.695,51856.807
0.928,09-20-2026 18:33:47:195,-175541.481,-90820.413,64546.608,-51071.143,54025.195,64529.218,64458.363,63883.163
0.932,09-20-2026 18:33:47:199,-175386.897,-90663.548,68972.611,-18199.863,68077.11,68970.241,68896.883,67571.246
0.936,09-20-2026 18:33:47:203,-175386.897,-90649.288,67787.074,-23881.319,58462.642,67780.682,67707.994,57789.809
0.9400001,09-20-2026 18:33:47:207,-175464.189,-90692.069,62807.821,-55535.144,28509.874,62784.53,62714.659,47527.319
0.9440001,09-20-2026 18:33:47:211,-175442.106,-90620.767,60436.748,-69332.966,22593.277,60405.411,60336.88,51856.807
0.9480001,09-20-2026 18:33:47:215,-175276.479,-90449.642,63993.357,-51476.962,54025.195,63974.09,63903.548,63402.109
0.952,09-20-2026 18:33:47:219,-175121.894,-90292.777,68419.36,-18199.863,67707.323,68415.113,68342.068,67090.191
0.956,09-20-2026 18:33:47:223,-175121.894,-90278.517,67233.824,-24287.137,58462.642,67225.554,67153.179,57469.107
0.96,09-20-2026 18:33:47:227,-175199.187,-90321.298,62333.606,-55129.326,28879.661,62308.706,62159.844,47527.319
0.964,09-20-2026 18:33:47:231,-175177.103,-90249.996,59883.497,-68927.147,22963.065,59850.283,59782.065,51696.456
0.9680001,09-20-2026 18:33:47:235,-175000.435,-90064.611,63440.107,-51071.143,54394.982,63418.962,63348.733,62921.055
0.9720001,09-20-2026 18:33:47:239,-174845.85,-89922.007,67866.11,-18605.681,67337.536,67859.986,67787.253,66609.137
0.9760001,09-20-2026 18:33:47:243,-174845.85,-89907.746,66680.573,-24287.137,58462.642,66670.426,66598.364,57308.755
0.98,09-20-2026 18:33:47:247,-174923.143,-89936.267,61701.32,-55535.144,29249.448,61674.274,61605.029,47527.319
0.984,09-20-2026 18:33:47:251,-174890.017,-89864.965,59409.283,-68927.147,23332.852,59374.459,59306.509,51536.104
0.988,09-20-2026 18:33:47:255,-174724.391,-89679.58,62886.857,-51476.962,54394.982,62863.834,62793.918,62440
0.992,09-20-2026 18:33:47:259,-174558.765,-89536.976,67391.895,-18605.681,66967.749,67384.162,67311.697,66128.083
0.9960001,09-20-2026 18:33:47:263,-174558.765,-89522.715,66048.287,-24692.956,58092.854,66035.994,65964.289,57308.755
1,09-20-2026 18:33:47:267,-174636.057,-89551.236,61148.07,-55535.144,29619.235,61119.146,61050.214,47527.319
1.004,09-20-2026 18:33:47:271,-174591.398,-89464.914,58815.665,-68164.148,23891.422,58709.181,58721.698,51350.138
1.008,09-20-2026 18:33:47:275,-174422.285,-89281.987,62375.851,-51102.793,54580.546,62362.351,62291.719,61907.314
1.012,09-20-2026 18:33:47:279,-174266.18,-89132.32,66745.17,-18918.874,66255.756,66746.153,66673.108,65573
1.016,09-20-2026 18:33:47:283,-174266.18,-89115.69,65531.47,-24735.245,57916.32,65528.43,65456.055,56921.981
1.02,09-20-2026 18:33:47:287,-174331.224,-89148.949,60514.845,-55755.89,29562.238,60495.175,60425.572,47244.569
1.024,09-20-2026 18:33:47:291,-174305.206,-89065.801,58249.272,-68164.148,24224.999,58222.092,58153.741,51203.51
1.028,09-20-2026 18:33:47:295,-174123.084,-88866.244,61728.544,-51490.551,54580.546,61712.898,61642.624,61320.804
1.032,09-20-2026 18:33:47:299,-173966.98,-88716.577,66178.777,-18918.874,65922.179,66177.883,66105.15,65133.117
1.036,09-20-2026 18:33:47:303,-173953.971,-88699.947,64884.164,-25123.003,57916.32,64878.978,64806.961,56775.353
1.04,09-20-2026 18:33:47:307,-174032.023,-88716.577,59948.452,-55755.89,29895.816,59926.904,59857.614,47244.569
1.044,09-20-2026 18:33:47:311,-173979.989,-88633.429,57682.879,-67776.39,24892.154,57653.821,57585.783,51056.883
1.048,09-20-2026 18:33:47:315,-173797.867,-88433.872,61162.151,-51490.551,54580.546,61225.809,61155.803,60880.922
1.052,09-20-2026 18:33:47:319,-173641.762,-88284.205,65612.384,-18918.874,65255.024,65609.612,65537.192,64693.235
1.056,09-20-2026 18:33:47:323,-173628.753,-88267.575,64317.771,-25510.761,57582.743,64310.707,64239.003,56628.726
1.06,09-20-2026 18:33:47:327,-173693.797,-88284.205,59382.058,-55368.132,30229.393,59358.634,59289.656,47097.942
1.064,09-20-2026 18:33:47:331,-173654.771,-88201.057,57035.572,-67388.632,24892.154,57004.369,56936.688,50763.628
1.068,09-20-2026 18:33:47:335,-173459.64,-88001.5,60595.758,-51490.551,54580.546,60576.357,60506.709,60294.412
1.072,09-20-2026 18:33:47:339,-173303.535,-87835.203,64965.077,-19694.39,64921.446,64960.16,64888.098,64106.725
1.076,09-20-2026 18:33:47:343,-173290.527,-87818.573,63670.464,-25898.519,57582.743,63661.255,63589.908,56482.098
1.08,09-20-2026 18:33:47:347,-173355.57,-87835.203,58734.752,-55755.89,30562.971,58709.181,58640.562,46951.314
1.084,09-20-2026 18:33:47:351,-173303.535,-87735.425,56469.179,-67000.874,25559.309,56436.098,56368.73,50470.373
1.088,09-20-2026 18:33:47:355,-173108.405,-87535.869,59948.452,-51878.309,54246.969,59926.904,59857.614,59707.902
1.092,09-20-2026 18:33:47:359,-172939.291,-87369.572,64398.684,-19694.39,64254.292,64391.889,64320.14,63520.216
1.096,09-20-2026 18:33:47:363,-172939.291,-87352.942,63023.157,-26286.277,57582.743,63011.803,62940.814,56188.843
1.1,09-20-2026 18:33:47:367,-172991.326,-87369.572,58087.445,-55368.132,30896.548,58059.729,57991.467,46951.314
1.104,09-20-2026 18:33:47:371,-172933.703,-87254.55,55754.996,-66283.606,26160.213,55735.192,55665.5,50064.108
1.108,09-20-2026 18:33:47:375,-172748.81,-87046.678,59329.845,-51754.973,54325.557,59323.184,59249.736,59120.319
1.112,09-20-2026 18:33:47:379,-172580.725,-86880.381,63670.732,-20155.194,63420.616,63680.031,63602.023,62926.553
1.116,09-20-2026 18:33:47:383,-172563.916,-86859.594,62394.001,-26329.863,57259.447,62398.605,62321.939,56101.582
1.12,09-20-2026 18:33:47:387,-172614.342,-86880.381,57372.189,-55750.347,31147.826,57358.331,57286.94,46782.872
1.124,09-20-2026 18:33:47:391,-172563.916,-86776.446,55074.072,-65920.391,26160.213,55051.765,54982.788,49801.609
1.128,09-20-2026 18:33:47:395,-172345.406,-86547.787,58648.921,-51754.973,53738.779,58639.757,58567.024,58332.823
1.132,09-20-2026 18:33:47:399,-172177.32,-86381.49,63074.924,-20155.194,62833.838,63082.032,63004.65,62401.555
1.136,09-20-2026 18:33:47:403,-172160.512,-86360.703,61627.962,-27056.295,56672.669,61629.75,61553.888,55839.083
1.14,09-20-2026 18:33:47:407,-172227.746,-86360.703,56691.266,-55387.131,31147.826,56674.904,56604.228,46782.872
1.144,09-20-2026 18:33:47:411,-172143.703,-86235.981,54393.149,-65557.175,26160.213,54368.339,54300.076,49539.11
1.148,09-20-2026 18:33:47:415,-171925.193,-86028.109,57967.998,-51754.973,53445.39,57956.33,57884.313,57676.576
1.152,09-20-2026 18:33:47:419,-171757.108,-85841.025,62308.885,-20518.41,62247.06,62313.177,62236.6,61745.308
1.156,09-20-2026 18:33:47:423,-171740.299,-85820.238,60947.038,-27419.511,56379.28,60946.323,60871.176,55576.584
1.16,09-20-2026 18:33:47:427,-171790.725,-85820.238,55925.227,-55750.347,30854.437,55906.049,55836.178,46389.123
1.164,09-20-2026 18:33:47:431,-171706.682,-85695.515,53627.11,-65193.959,26160.213,53599.483,53532.026,49145.362
1.168,09-20-2026 18:33:47:435,-171488.171,-85446.07,57201.959,-52118.188,52858.612,57187.475,57116.262,56889.079
1.172,09-20-2026 18:33:47:439,-171303.278,-85258.986,61542.846,-20881.626,61366.893,61544.321,61468.549,61089.061
1.176,09-20-2026 18:33:47:443,-171286.469,-85238.199,60095.884,-27782.727,56085.891,60092.039,60017.787,55314.086
1.18,09-20-2026 18:33:47:447,-171336.895,-85238.199,55159.188,-55387.131,31441.215,55137.194,55068.127,46389.123
1.184,09-20-2026 18:33:47:451,-171236.044,-85092.689,52861.071,-64467.527,26746.991,52830.628,52763.975,48620.364
1.188,09-20-2026 18:33:47:455,-171000.725,-84843.243,56350.804,-52118.188,52565.223,56333.191,56262.872,56232.832
1.192,09-20-2026 18:33:47:459,-170815.831,-84656.159,60691.692,-21244.841,60486.726,60690.038,60615.159,60301.564
1.196,09-20-2026 18:33:47:463,-170799.022,-84614.585,59244.729,-28509.158,55499.113,59237.755,59164.397,54920.337
1.2,09-20-2026 18:33:47:467,-170832.639,-84614.585,54222.918,-55387.131,31734.604,54197.482,54129.398,46257.874
1.204,09-20-2026 18:33:47:471,-170714.533,-84447.93,51953.277,-63680.433,27246.061,51939.777,51870.263,48116.734
1.208,09-20-2026 18:33:47:475,-170470.899,-84186.817,55480.248,-52247.739,52195.525,55477.209,55404.208,55366.523
1.212,09-20-2026 18:33:47:479,-170275.992,-83983.729,59730.701,-22196.087,59578.53,59740.267,59663.064,59381.79
1.216,09-20-2026 18:33:47:483,-170251.628,-83954.717,58374.173,-29055.703,54995.975,58379.717,58303.855,54585.776
1.22,09-20-2026 18:33:47:487,-170300.355,-83954.717,53309.805,-55514.223,31828.616,53300.327,53229.472,45886.03
1.224,09-20-2026 18:33:47:491,-170178.538,-83780.641,51139.361,-63353.784,27755.234,51123.446,51054.737,47782.129
1.228,09-20-2026 18:33:47:495,-169910.541,-83519.528,54575.897,-52574.387,51686.353,54570.175,54498.068,54362.706
1.232,09-20-2026 18:33:47:499,-169715.633,-83287.428,58826.349,-22522.735,58814.771,58833.234,58756.925,58489.508
1.236,09-20-2026 18:33:47:503,-169666.907,-83258.415,57379.387,-29709,54486.803,57381.98,57307.101,54028.1
1.24,09-20-2026 18:33:47:507,-169691.27,-83229.403,52315.018,-55514.223,32083.202,52302.59,52232.719,45662.96
1.244,09-20-2026 18:33:47:511,-169569.453,-83084.34,50144.574,-62373.839,28264.407,50125.709,50057.983,47224.453
1.248,09-20-2026 18:33:47:515,-169301.456,-82765.202,53671.545,-52574.387,51177.18,53663.141,53591.928,53470.424
1.252,09-20-2026 18:33:47:519,-169082.185,-82533.101,57831.562,-23502.68,57796.426,57835.496,57760.171,57597.227
1.256,09-20-2026 18:33:47:523,-169057.822,-82475.076,56294.165,-30688.945,53723.044,56293.539,56219.734,53470.424
1.26,09-20-2026 18:33:47:527,-169057.822,-82446.063,51229.796,-55840.871,31828.616,51214.15,51145.351,45439.889
1.264,09-20-2026 18:33:47:531,-168936.005,-82301.001,49240.222,-61720.543,28518.993,49218.675,49151.844,46778.312
1.268,09-20-2026 18:33:47:535,-168643.644,-81981.862,52676.758,-52247.739,50413.421,52665.404,52595.175,52578.143
1.272,09-20-2026 18:33:47:539,-168424.373,-81720.749,56746.341,-23829.329,56778.08,56747.056,56672.803,56593.41
1.276,09-20-2026 18:33:47:543,-168351.283,-81662.724,55118.508,-31668.89,52959.285,55114.395,55041.752,53024.283
1.28,09-20-2026 18:33:47:547,-168351.283,-81633.712,50144.574,-55514.223,32083.202,50125.709,50057.983,45328.354
1.284,09-20-2026 18:33:47:551,-168229.466,-81488.649,48245.436,-60740.597,29028.166,48220.938,48155.09,46109.101
1.288,09-20-2026 18:33:47:555,-167961.468,-81169.511,51772.407,-51594.442,49904.248,51758.37,51689.035,51574.326
1.292,09-20-2026 18:33:47:559,-167693.471,-80879.385,55751.554,-24155.977,55759.735,55749.319,55676.05,55589.593
1.296,09-20-2026 18:33:47:563,-167644.744,-80792.347,53942.851,-32322.187,52195.525,53935.251,53863.77,52355.072
1.3,09-20-2026 18:33:47:567,-167620.381,-80763.335,48968.917,-55514.223,32083.202,48946.565,48880.002,45216.819
1.304,09-20-2026 18:33:47:571,-167475.899,-80593.908,47236.076,-59526.093,29602.606,47145.015,47160.795,45547.535
1.308,09-20-2026 18:33:47:575,-167219.212,-80284.918,50729.475,-51093.227,49263.2,50734.884,50661.525,50674.31
1.312,09-20-2026 18:33:47:579,-166962.524,-79975.927,54648.898,-24389.151,54571.561,54666.645,54589.174,54541.877
1.316,09-20-2026 18:33:47:583,-166876.962,-79872.931,52774.391,-33103.112,51425.865,52786.237,52710.733,51933.518
1.32,09-20-2026 18:33:47:587,-166848.441,-79838.598,47917.714,-55028.564,32355.089,47914.272,47843.864,45097.818
1.324,09-20-2026 18:33:47:591,-166734.358,-79701.269,46213.617,-58682.806,29602.606,46204.811,46136.191,44827.988
1.328,09-20-2026 18:33:47:595,-166449.149,-79392.279,49877.426,-50812.131,48476.776,49880.153,49807.689,49774.876
1.332,09-20-2026 18:33:47:599,-166192.462,-79083.288,53711.644,-24389.151,53588.531,53726.441,53649.953,53642.443
1.336,09-20-2026 18:33:47:603,-166106.9,-78945.959,51751.933,-33665.303,50442.836,51760.56,51686.129,51213.971
1.34,09-20-2026 18:33:47:607,-166078.379,-78911.627,46895.256,-54466.373,32355.089,46888.595,46819.26,44827.988
1.344,09-20-2026 18:33:47:611,-165935.775,-78774.298,45276.364,-57839.52,29995.818,45264.607,45196.971,44288.328
1.348,09-20-2026 18:33:47:615,-165679.087,-78465.307,48940.173,-50249.94,47690.353,48939.949,48868.468,48875.442
1.352,09-20-2026 18:33:47:619,-165422.4,-78156.317,52859.596,-24108.055,52802.107,52871.71,52796.117,52743.009
1.356,09-20-2026 18:33:47:623,-165336.837,-78018.988,50899.884,-33103.112,50049.624,50991.303,50832.293,50674.31
1.36,09-20-2026 18:33:47:627,-165308.316,-78018.988,46128.413,-53904.182,33141.513,46119.338,46050.807,44558.158
1.364,09-20-2026 18:33:47:631,-165194.233,-77881.658,44509.52,-56996.233,30585.635,44495.349,44428.518,43658.724
1.368,09-20-2026 18:33:47:635,-164937.546,-77538.336,48173.329,-49406.654,47100.535,48256.165,48185.399,48155.895
1.372,09-20-2026 18:33:47:639,-164680.858,-77229.345,52092.752,-23826.96,52015.683,52187.926,52113.047,52023.462
1.376,09-20-2026 18:33:47:643,-164595.296,-77126.348,50133.041,-33103.112,49459.806,50222.045,50149.223,50044.706
1.38,09-20-2026 18:33:47:647,-164566.775,-77126.348,45361.569,-53341.991,33731.33,45350.08,45282.354,44108.441
1.384,09-20-2026 18:33:47:651,-164452.692,-76989.019,43827.882,-56152.946,30978.847,43811.565,43745.448,43119.063
1.388,09-20-2026 18:33:47:655,-164196.004,-76645.696,47491.69,-49125.558,46707.323,47486.907,47416.946,47436.347
1.392,09-20-2026 18:33:47:659,-163939.317,-76336.706,51411.113,-23826.96,51425.865,51418.668,51344.595,51303.914
1.396,09-20-2026 18:33:47:663,-163853.754,-76233.709,49451.402,-32822.017,49066.594,49538.261,49466.154,49415.103
1.4,09-20-2026 18:33:47:667,-163853.754,-76233.709,44679.93,-52779.8,34124.542,44666.296,44599.285,43748.667
1.404,09-20-2026 18:33:47:671,-163717.006,-76069.424,43146.198,-55447.704,31647.03,43144.008,43073.644,42624.911
1.408,09-20-2026 18:33:47:675,-163488.482,-75779.745,46820.914,-48380.619,46199.446,46829.006,46754.53,46762.889
1.412,09-20-2026 18:33:47:679,-163234.566,-75457.88,50735.286,-23393.425,50700.194,50754.33,50675.473,50657.457
1.416,09-20-2026 18:33:47:683,-163133,-75361.32,48818.043,-32984.469,48449.82,48831.722,48755.011,48710.173
1.42,09-20-2026 18:33:47:687,-163133,-75329.134,44024.935,-52166.558,34497.504,44025.203,43953.856,43192.869
1.424,09-20-2026 18:33:47:691,-163031.434,-75200.388,42427.232,-54942.912,31647.03,42423.03,42353.471,41975.816
1.428,09-20-2026 18:33:47:695,-162777.518,-74910.709,46181.833,-48380.619,45599.347,46188.136,46114.376,46113.795
1.432,09-20-2026 18:33:47:699,-162548.994,-74588.844,50016.32,-23645.821,50100.094,50113.46,49955.299,50008.363
1.436,09-20-2026 18:33:47:703,-162447.427,-74492.285,48099.077,-32984.469,47849.72,48110.744,48034.838,47979.942
1.44,09-20-2026 18:33:47:707,-162447.427,-74492.285,43226.083,-51661.766,34347.479,43224.116,43153.664,42624.911
1.444,09-20-2026 18:33:47:711,-162345.861,-74363.539,41788.151,-54185.725,31647.03,41702.052,41713.317,41407.858
1.448,09-20-2026 18:33:47:715,-162091.945,-74041.673,45462.867,-47875.827,44999.247,45547.267,45394.203,45383.563
1.452,09-20-2026 18:33:47:719,-161863.421,-73719.808,49377.239,-23393.425,49349.97,49472.591,49395.165,49359.268
1.456,09-20-2026 18:33:47:723,-161761.855,-73623.249,47380.11,-32984.469,47099.596,47389.766,47314.664,47330.847
1.46,09-20-2026 18:33:47:727,-161761.855,-73623.249,42587.002,-51156.974,34197.454,42583.247,42513.51,42138.09
1.464,09-20-2026 18:33:47:731,-161660.288,-73494.503,41149.07,-53680.933,31647.03,41061.183,40993.144,40839.9
1.468,09-20-2026 18:33:47:735,-161431.764,-73204.824,44903.671,-47371.036,44399.148,44906.398,44834.068,44815.605
1.472,09-20-2026 18:33:47:739,-161177.848,-72882.959,48738.158,-23393.425,48749.87,48831.722,48755.011,48710.173
1.476,09-20-2026 18:33:47:743,-161127.065,-72786.399,46820.914,-32732.073,46649.521,46829.006,46754.53,46762.889
1.48,09-20-2026 18:33:47:747,-161127.065,-72786.399,42027.806,-50652.182,34197.454,42022.487,41953.375,41651.269
1.484,09-20-2026 18:33:47:751,-161025.499,-72657.653,40589.874,-52923.745,31947.08,40580.531,40513.029,40353.079
1.488,09-20-2026 18:33:47:755,-160771.583,-72367.975,44264.59,-47118.64,43949.073,44345.637,44193.914,44247.647
1.492,09-20-2026 18:33:47:759,-160568.45,-72078.296,48178.962,-23645.821,48149.77,48190.853,48114.857,48061.079
1.496,09-20-2026 18:33:47:763,-160492.275,-71981.737,46101.948,-33236.865,45899.397,46108.028,46034.356,46032.658
1.5,09-20-2026 18:33:47:767,-160492.275,-71981.737,41308.84,-50399.786,33747.379,41301.509,41233.202,41083.311
1.504,09-20-2026 18:33:47:771,-160374.392,-71826.571,39856.915,-52235.759,31430.129,39782.663,39711.897,39617.26
1.508,09-20-2026 18:33:47:775,-160149.981,-71527.952,43624.526,-46695.387,43258.002,43638.339,43563.103,43543.21
1.512,09-20-2026 18:33:47:779,-159925.569,-71229.332,47469.026,-23379.656,47454.989,47494.015,47414.308,47392.18
1.516,09-20-2026 18:33:47:783,-159858.246,-71139.746,45469.886,-32844.458,45292.904,45489.063,45411.682,45390.716
1.52,09-20-2026 18:33:47:787,-159858.246,-71139.746,40625.815,-49927.27,33592.213,40630.912,40559.163,40541.013
1.524,09-20-2026 18:33:47:791,-159768.481,-71020.299,39241.795,-51774.061,31684.492,39242.868,39172.729,39155.384
1.528,09-20-2026 18:33:47:795,-159521.629,-70721.679,43086.295,-46233.689,42749.276,43098.544,43023.934,43004.354
1.532,09-20-2026 18:33:47:799,-159297.217,-70423.06,46930.796,-23148.808,46946.263,46954.22,46875.14,46930.304
1.536,09-20-2026 18:33:47:803,-159229.894,-70333.474,44931.656,-32613.609,44784.179,44949.269,44872.513,44851.86
1.54,09-20-2026 18:33:47:807,-159252.335,-70363.336,40087.585,-49465.573,33337.85,40091.117,40019.994,40002.157
1.544,09-20-2026 18:33:47:811,-159162.57,-70243.889,38703.565,-51312.363,31430.129,38703.074,38633.56,38616.528
1.548,09-20-2026 18:33:47:815,-158938.159,-69915.407,42548.065,-45771.992,42240.55,42558.75,42484.765,42465.498
1.552,09-20-2026 18:33:47:819,-158713.747,-69646.65,46392.566,-22917.959,46437.537,46414.426,46335.971,46314.469
1.556,09-20-2026 18:33:47:823,-158646.424,-69557.064,44316.536,-32844.458,44148.272,44332.361,44256.32,44236.025
1.56,09-20-2026 18:33:47:827,-158668.865,-69557.064,39549.355,-49003.875,33083.488,39551.322,39480.825,39463.301
1.564,09-20-2026 18:33:47:831,-158579.1,-69437.616,38165.335,-50619.817,31302.948,38163.279,38094.391,38077.672
1.568,09-20-2026 18:33:47:835,-158354.689,-69138.997,42009.835,-45310.294,41731.824,42018.955,41945.597,41926.642
1.572,09-20-2026 18:33:47:839,-158130.277,-68870.24,45854.336,-22917.959,45928.812,45874.631,45796.802,45775.613
1.576,09-20-2026 18:33:47:843,-158085.395,-68780.654,43855.196,-32613.609,43639.546,43869.679,43794.175,43774.148
1.58,09-20-2026 18:33:47:847,-158085.395,-68780.654,39011.125,-48542.178,32829.125,39011.528,38941.656,38924.445
1.584,09-20-2026 18:33:47:851,-158018.071,-68661.206,37703.995,-50158.119,31302.948,37700.598,37632.246,37615.795
1.588,09-20-2026 18:33:47:855,-157793.66,-68392.449,41548.495,-45079.445,41350.28,41556.274,41483.452,41464.766
1.592,09-20-2026 18:33:47:859,-157569.248,-68093.83,45392.996,-22917.959,45420.086,45411.95,45334.657,45313.736
1.596,09-20-2026 18:33:47:863,-157524.366,-68034.106,43316.965,-32613.609,43258.002,43329.885,43255.006,43235.292
1.6,09-20-2026 18:33:47:867,-157546.807,-68034.106,38549.785,-48080.48,32701.943,38548.847,38479.512,38462.569
1.604,09-20-2026 18:33:47:871,-157441.307,-67903.571,37233.581,-49572.548,31177.375,37163.977,37091.111,37074.749
1.608,09-20-2026 18:33:47:875,-157221.992,-67629.092,41104.813,-44680.467,40934.717,41120.415,41045.224,41026.538
1.612,09-20-2026 18:33:47:879,-157022.614,-67354.613,44900.14,-22559.75,44905.727,44924.682,44847.255,44826.334
1.616,09-20-2026 18:33:47:883,-156962.801,-67272.269,42774.757,-32769.311,42636.578,42794.292,42718.118,42698.448
1.62,09-20-2026 18:33:47:887,-156982.739,-67272.269,37992.646,-47658.255,32425.407,38000.916,37927.558,37910.704
1.624,09-20-2026 18:33:47:891,-156902.988,-67162.477,36702.235,-49147.15,30950.461,36631.38,36634.867,36618.774
1.628,09-20-2026 18:33:47:895,-156683.672,-66887.998,40573.468,-44255.068,40367.429,40587.818,40512.939,40494.566
1.632,09-20-2026 18:33:47:899,-156484.295,-66613.518,44444.7,-22559.75,44451.898,44468.17,44391.012,44370.359
1.636,09-20-2026 18:33:47:903,-156444.419,-66531.174,42319.318,-32769.311,42182.749,42337.78,42261.874,42242.472
1.64,09-20-2026 18:33:47:907,-156464.357,-66558.622,37537.207,-47232.857,32198.493,37468.319,37395.273,37378.733
1.644,09-20-2026 18:33:47:911,-156384.606,-66448.831,36170.889,-48721.751,30723.546,36174.868,36102.582,36086.802
1.648,09-20-2026 18:33:47:915,-156165.291,-66146.903,40118.029,-43829.67,39913.599,40131.305,40056.695,40038.59
1.652,09-20-2026 18:33:47:919,-155965.913,-65872.424,43989.261,-22559.75,43998.068,44011.658,43934.768,43914.383
1.656,09-20-2026 18:33:47:923,-155926.038,-65817.528,41787.972,-32556.612,41728.919,41805.183,41729.589,41710.501
1.66,09-20-2026 18:33:47:927,-155945.975,-65844.976,37005.861,-46807.459,31971.578,37011.807,36939.029,36922.757
1.664,09-20-2026 18:33:47:931,-155866.224,-65735.184,35715.45,-48296.353,30610.088,35718.356,35646.339,35630.826
1.668,09-20-2026 18:33:47:935,-155646.909,-65433.257,39586.683,-43616.971,39459.77,39598.708,39524.411,39506.619
1.672,09-20-2026 18:33:47:939,-155447.531,-65158.777,43457.916,-22559.75,43544.238,43479.06,43402.483,43382.411
1.676,09-20-2026 18:33:47:943,-155407.656,-65103.881,41332.533,-32769.311,41275.089,41348.671,41273.346,41254.525
1.68,09-20-2026 18:33:47:947,-155427.594,-65131.329,36550.422,-46594.759,31858.12,36555.295,36482.786,36466.782
1.684,09-20-2026 18:33:47:951,-155367.78,-65021.538,35260.011,-47870.955,30496.631,35261.844,35190.095,35174.851
1.688,09-20-2026 18:33:47:955,-155148.465,-64747.058,39131.244,-43404.271,39005.94,39142.196,39068.167,39050.643
1.692,09-20-2026 18:33:47:959,-154949.087,-64472.579,42926.57,-22772.449,42976.951,42946.463,42870.199,42850.44
1.696,09-20-2026 18:33:47:963,-154909.212,-64417.683,40801.187,-32769.311,40707.802,40816.074,40741.061,40722.554
1.7,09-20-2026 18:33:47:967,-154929.15,-64417.683,36019.076,-46169.361,31517.748,36022.697,35950.501,35934.81
1.704,09-20-2026 18:33:47:971,-154850.472,-64309.187,34701.709,-47143.361,30232.478,34714.181,34636.934,34623.254
1.708,09-20-2026 18:33:47:975,-154654.76,-64030.372,38593.058,-42858.352,38466.592,38617.154,38535.257,38521.578
1.712,09-20-2026 18:33:47:979,-154441.256,-63776.903,42409.574,-22601.95,42431.166,42445.069,42358.612,42344.933
1.716,09-20-2026 18:33:47:983,-154405.672,-63726.209,40314.232,-32535.378,40194.74,40343.468,40259.515,40245.836
1.72,09-20-2026 18:33:47:987,-154441.256,-63751.556,35524.879,-45585.176,31350.691,35464.753,35461.579,35372.932
1.724,09-20-2026 18:33:47:991,-154370.088,-63650.169,34252.707,-46753.814,30232.478,34263.838,34187.127,34173.448
1.728,09-20-2026 18:33:47:995,-154156.584,-63371.353,38144.057,-42468.806,38059.969,38166.811,38085.45,38071.771
1.732,09-20-2026 18:33:47:999,-153960.872,-63092.537,41960.572,-22601.95,42024.543,41994.726,41908.806,41895.126
1.736,09-20-2026 18:33:48:003,-153943.08,-63041.844,39790.397,-32535.378,39686.461,39818.068,39734.741,39721.062
1.74,09-20-2026 18:33:48:007,-153978.664,-63067.19,35001.044,-45195.63,31045.724,35014.41,34936.805,34923.125
1.744,09-20-2026 18:33:48:011,-153907.496,-62965.803,33728.872,-46364.268,29825.855,33738.438,33662.353,33648.674
1.748,09-20-2026 18:33:48:015,-153693.992,-62686.987,37695.055,-42079.26,37551.691,37716.468,37635.644,37546.997
1.752,09-20-2026 18:33:48:019,-153498.28,-62433.518,41511.57,-22407.177,41516.264,41544.383,41458.999,41445.32
1.756,09-20-2026 18:33:48:023,-153462.696,-62382.825,39341.395,-32340.605,39279.838,39367.725,39284.934,39271.255
1.76,09-20-2026 18:33:48:027,-153498.28,-62408.172,34552.042,-44806.083,30842.412,34564.067,34486.998,34473.319
1.764,09-20-2026 18:33:48:031,-153444.904,-62306.784,33354.704,-45779.949,29724.199,33363.153,33287.514,33273.835
1.768,09-20-2026 18:33:48:035,-153231.401,-62027.968,37246.053,-41689.714,37145.068,37266.125,37185.837,37172.158
1.772,09-20-2026 18:33:48:039,-153035.689,-61774.5,41062.569,-22407.177,41109.641,41094.04,41009.193,40995.513
1.776,09-20-2026 18:33:48:043,-153017.897,-61723.806,38892.393,-32340.605,38873.215,38917.382,38835.128,38821.449
1.78,09-20-2026 18:33:48:047,-153053.481,-61749.153,34103.04,-44416.537,30537.445,34113.724,34037.192,34023.512
1.784,09-20-2026 18:33:48:051,-153000.105,-61647.765,32905.702,-45390.403,29520.888,32912.81,32837.708,32824.028
1.788,09-20-2026 18:33:48:055,-152804.393,-61394.296,36797.051,-41300.168,36738.445,36815.782,36736.031,36722.352
1.792,09-20-2026 18:33:48:059,-152608.681,-61115.481,40613.567,-22407.177,40703.018,40643.697,40559.386,40545.707
1.796,09-20-2026 18:33:48:063,-152590.889,-61090.134,38443.391,-32145.832,38364.937,38467.039,38385.321,38371.642
1.8,09-20-2026 18:33:48:067,-152626.473,-61115.481,33654.038,-44026.991,30334.134,33663.381,33587.385,33573.706
1.804,09-20-2026 18:33:48:071,-152557.317,-61001.755,32431.979,-44862.902,29385.481,32448.027,32367.829,32355.804
1.808,09-20-2026 18:33:48:075,-152365.807,-60741.626,36360.253,-40873.92,36275.54,36311.482,36228.959,36216.934
1.812,09-20-2026 18:33:48:079,-152174.297,-60481.496,40140.291,-22198.233,40173.863,40174.936,40090.089,40078.064
1.816,09-20-2026 18:33:48:083,-152158.338,-60434.2,37916.739,-32170.687,37907.396,37946.02,37862.514,37850.489
1.82,09-20-2026 18:33:48:087,-152206.216,-60481.496,33173.163,-43593.68,30020.092,33190.999,33110.354,33098.329
1.824,09-20-2026 18:33:48:091,-152142.379,-60386.903,31987.269,-44500.267,29022.846,32002.244,31922.314,31910.289
1.828,09-20-2026 18:33:48:095,-151950.869,-60103.126,35915.543,-40511.285,35912.905,35939.996,35857.697,35845.671
1.832,09-20-2026 18:33:48:099,-151759.359,-59866.644,39769.699,-22016.915,39811.228,39803.45,39718.826,39706.801
1.836,09-20-2026 18:33:48:103,-151743.4,-59819.348,37546.147,-31808.052,37454.103,37574.534,37491.252,37404.974
1.84,09-20-2026 18:33:48:107,-151791.278,-59842.996,32728.452,-43049.728,30020.092,32745.216,32664.839,32652.814
1.844,09-20-2026 18:33:48:111,-151727.441,-59748.403,31542.558,-44137.632,29113.505,31556.461,31476.799,31464.774
1.848,09-20-2026 18:33:48:115,-151519.972,-59488.274,35470.833,-40148.65,35459.612,35494.213,35412.182,35400.156
1.852,09-20-2026 18:33:48:119,-151344.422,-59251.792,39324.989,-21835.598,39357.935,39357.667,39273.311,39261.286
1.856,09-20-2026 18:33:48:123,-151328.463,-59204.496,37101.437,-31808.052,37091.468,37128.751,37045.737,37033.711
1.86,09-20-2026 18:33:48:127,-151376.34,-59228.144,32283.742,-42687.093,29929.433,32299.433,32219.324,32207.299
1.864,09-20-2026 18:33:48:131,-151312.503,-59133.552,31097.848,-43593.68,29022.846,31110.678,31031.284,31019.259
1.868,09-20-2026 18:33:48:135,-151120.994,-58873.422,35100.241,-39786.016,35096.977,35122.727,35040.919,35028.894
1.872,09-20-2026 18:33:48:139,-150929.484,-58636.941,38880.278,-21835.598,38904.642,38911.884,38827.796,38815.771
1.876,09-20-2026 18:33:48:143,-150913.525,-58589.644,36582.608,-31808.052,36547.516,36608.671,36525.969,36513.944
1.88,09-20-2026 18:33:48:147,-150961.402,-58636.941,31839.032,-42324.459,29566.798,31853.65,31773.809,31761.784
1.884,09-20-2026 18:33:48:151,-150913.525,-58542.348,30727.256,-43231.045,28660.211,30739.192,30660.022,30647.997
1.888,09-20-2026 18:33:48:155,-150706.056,-58282.218,34655.53,-39423.381,34643.684,34676.943,34595.404,34583.379
1.892,09-20-2026 18:33:48:159,-150530.505,-58022.089,38435.568,-21835.598,38451.348,38466.101,38382.281,38370.256
1.896,09-20-2026 18:33:48:163,-150530.505,-57998.441,36212.016,-31445.418,36184.881,36237.185,36154.707,36142.681
1.9,09-20-2026 18:33:48:167,-150578.383,-58022.089,31320.203,-41961.824,29204.163,31333.569,31254.042,31242.017
1.904,09-20-2026 18:33:48:171,-150507.975,-57928.748,30049.551,-42605.599,28053.049,29997.561,29912.848,29902.879
1.908,09-20-2026 18:33:48:175,-150323.439,-57676.978,33744.294,-39269.825,33792.083,33775.319,33688.326,33678.357
1.912,09-20-2026 18:33:48:179,-150138.903,-57425.208,37439.038,-23424.896,37481.461,37479.003,37389.775,37379.806
1.916,09-20-2026 18:33:48:183,-150123.525,-57379.431,35074.402,-32598.276,35103.862,35108.645,35020.847,35010.878
1.92,09-20-2026 18:33:48:187,-150169.659,-57425.208,30345.131,-41271.289,28217.021,30367.929,30282.993,30273.024
1.924,09-20-2026 18:33:48:191,-150108.147,-57333.655,29236.708,-41938.444,27397.159,29256.824,29172.558,29162.589
1.928,09-20-2026 18:33:48:195,-149908.233,-57058.997,33227.03,-38602.67,33218.179,33256.803,33170.123,33160.154
1.932,09-20-2026 18:33:48:199,-149723.697,-56807.227,36995.669,-22424.164,37071.53,37034.561,36945.601,36935.632
1.936,09-20-2026 18:33:48:203,-149708.319,-56784.339,34631.033,-31764.332,34693.931,34664.203,34576.673,34566.705
1.94,09-20-2026 18:33:48:207,-149769.831,-56807.227,29901.761,-40770.923,28135.035,29849.414,29838.819,29754.821
1.944,09-20-2026 18:33:48:211,-149692.941,-56715.674,28867.233,-41438.078,27479.145,28886.456,28802.413,28792.444
1.948,09-20-2026 18:33:48:215,-149508.405,-56441.016,32931.451,-37768.726,32972.221,32960.508,32874.007,32864.038
1.952,09-20-2026 18:33:48:219,-149323.869,-56212.134,36700.089,-21590.221,36743.586,36738.266,36649.485,36639.516
1.956,09-20-2026 18:33:48:223,-149308.491,-56166.358,34187.664,-31597.544,34202.014,34219.761,34132.5,34122.531
1.96,09-20-2026 18:33:48:227,-149370.003,-56212.134,29458.392,-40270.557,27807.09,29404.972,29320.616,29310.647
1.964,09-20-2026 18:33:48:231,-149308.491,-56120.581,28423.864,-40937.712,27069.214,28442.014,28358.239,28348.27
1.968,09-20-2026 18:33:48:235,-149108.577,-55868.811,32488.082,-37435.149,32562.29,32516.066,32429.833,32419.864
1.972,09-20-2026 18:33:48:239,-148939.419,-55617.041,36256.72,-21590.221,36333.655,36293.824,36205.311,36195.342
1.976,09-20-2026 18:33:48:243,-148924.041,-55594.153,33818.189,-31263.966,33792.083,33849.392,33762.355,33752.386
1.98,09-20-2026 18:33:48:247,-148985.553,-55639.929,29015.023,-39936.979,27725.104,29034.603,28950.471,28940.502
1.984,09-20-2026 18:33:48:251,-148924.041,-55548.377,28054.39,-40604.134,27069.214,28071.645,27988.094,27978.126
1.988,09-20-2026 18:33:48:255,-148724.127,-55273.718,32118.607,-37101.571,32152.359,32145.698,32059.688,32049.719
1.992,09-20-2026 18:33:48:259,-148554.969,-55044.836,35813.351,-21423.432,35923.724,35849.382,35761.137,35751.168
1.996,09-20-2026 18:33:48:263,-148554.969,-55021.948,33300.925,-31263.966,33382.152,33330.877,33244.152,33234.183
2,09-20-2026 18:33:48:267,-148601.103,-55067.725,28497.759,-39436.613,28544.966,28516.087,28432.268,28422.299
2.004,09-20-2026 18:33:48:271,-148540.127,-54959.095,27451.742,-39989.64,27534.041,27475.971,27389.783,27380.216
2.008,09-20-2026 18:33:48:275,-148357.066,-54701.603,31592.358,-36664.505,31634.603,31626.601,31540.412,31528.343
2.012,09-20-2026 18:33:48:279,-148174.006,-54465.569,35289.336,-21399.113,35340.88,35332.52,35246.332,35232.027
2.016,09-20-2026 18:33:48:283,-148174.006,-54444.111,32849.331,-30769.948,32896.314,32886.613,32800.425,32787.595
2.02,09-20-2026 18:33:48:287,-148230.332,-54487.026,28043.259,-38931.643,27612.898,28068.918,27982.73,27972.806
2.024,09-20-2026 18:33:48:291,-148174.006,-54401.196,27082.044,-39536.213,26745.472,27105.379,27019.191,27009.848
2.028,09-20-2026 18:33:48:295,-147990.945,-54143.703,31222.66,-36211.078,31240.318,31256.009,31169.821,31157.974
2.032,09-20-2026 18:33:48:299,-147807.884,-53907.669,34919.639,-21096.828,34946.595,34961.928,34875.74,34861.658
2.036,09-20-2026 18:33:48:303,-147807.884,-53886.211,32405.693,-30618.805,32423.172,32441.903,32355.715,32343.153
2.04,09-20-2026 18:33:48:307,-147864.21,-53929.127,27599.621,-38629.358,26745.472,27624.208,27538.02,27528.364
2.044,09-20-2026 18:33:48:311,-147807.884,-53843.296,26712.346,-39233.928,26035.759,26734.787,26648.599,26639.48
2.048,09-20-2026 18:33:48:315,-147624.823,-53564.346,30852.962,-35757.65,30846.033,30885.417,30799.229,30787.606
2.052,09-20-2026 18:33:48:319,-147455.844,-53349.77,34549.941,-20945.686,34552.31,34591.336,34505.148,34491.29
2.056,09-20-2026 18:33:48:323,-147455.844,-53328.312,31962.056,-30769.948,31950.031,31997.193,31911.004,31898.711
2.06,09-20-2026 18:33:48:327,-147512.17,-53371.227,27155.984,-38175.93,26272.33,27179.498,27093.309,27083.922
2.064,09-20-2026 18:33:48:331,-147455.844,-53285.396,26268.709,-38780.5,25562.617,26290.077,26203.889,26195.038
2.068,09-20-2026 18:33:48:335,-147258.702,-53027.904,30409.325,-35455.365,30451.748,30440.707,30354.518,30343.164
2.072,09-20-2026 18:33:48:339,-147103.804,-52791.87,34032.364,-20945.686,34079.168,34072.508,33986.319,33972.774
2.076,09-20-2026 18:33:48:343,-147103.804,-52770.412,31518.418,-30316.52,31555.746,31552.482,31466.294,31454.269
2.08,09-20-2026 18:33:48:347,-147160.13,-52834.785,26712.346,-37722.503,25956.902,26734.787,26648.599,26639.48
2.084,09-20-2026 18:33:48:351,-147103.804,-52727.497,25899.011,-38327.073,25326.046,25919.485,25833.297,25824.669
2.088,09-20-2026 18:33:48:355,-146906.662,-52470.005,29965.687,-35153.08,30057.464,29995.996,29909.808,29898.722
2.092,09-20-2026 18:33:48:359,-146751.764,-52233.97,33662.666,-20794.543,33763.741,33776.034,33689.846,33676.479
2.096,09-20-2026 18:33:48:363,-146751.764,-52233.97,31148.721,-30316.52,31161.461,31181.891,31095.702,31083.9
2.1,09-20-2026 18:33:48:367,-146808.09,-52276.886,26342.648,-37420.218,25720.331,26364.196,26278.007,26269.111
2.104,09-20-2026 18:33:48:371,-146747.696,-52182.83,25448.579,-37865.375,24975.571,25478.217,25386.754,25378.707
2.108,09-20-2026 18:33:48:375,-146561.819,-51941.431,29632.557,-34849.052,29681.954,29669.84,29580.924,29570.33
2.112,09-20-2026 18:33:48:379,-146402.496,-51700.032,33229.31,-20727.175,33285.279,33273.164,33186.44,33173.654
2.116,09-20-2026 18:33:48:383,-146402.496,-51700.032,30733.604,-29913.25,30785.013,30772.898,30684.654,30673.388
2.12,09-20-2026 18:33:48:387,-146468.88,-51740.265,25962.401,-36905.636,25490.332,25992.978,25901.827,25893.468
2.124,09-20-2026 18:33:48:391,-146415.773,-51659.799,25154.966,-37591.164,24754.959,25184.068,25092.426,25084.558
2.128,09-20-2026 18:33:48:395,-146216.619,-51398.283,29265.541,-34300.629,29314.268,29302.154,29213.015,29202.644
2.132,09-20-2026 18:33:48:399,-146057.295,-51177.001,32935.698,-20452.964,32991.13,32979.015,32892.112,32879.506
2.136,09-20-2026 18:33:48:403,-146070.572,-51156.885,30366.588,-29913.25,30417.327,30405.212,30316.744,30305.702
2.14,09-20-2026 18:33:48:407,-146123.68,-51217.234,25595.385,-36631.425,25269.72,25625.292,25533.918,25525.782
2.144,09-20-2026 18:33:48:411,-146070.572,-51136.768,24787.95,-37179.847,24460.81,24742.845,24724.516,24716.872
2.148,09-20-2026 18:33:48:415,-145884.695,-50875.253,28898.526,-34163.524,28946.582,28934.467,28845.105,28834.957
2.152,09-20-2026 18:33:48:419,-145725.372,-50653.97,32495.279,-20864.281,32549.907,32537.792,32450.62,32438.282
2.156,09-20-2026 18:33:48:423,-145725.372,-50653.97,29852.766,-29776.145,29902.566,29890.451,29801.67,29790.941
2.16,09-20-2026 18:33:48:427,-145791.757,-50714.32,25081.563,-36220.108,25049.108,25036.994,24945.262,24937.484
2.164,09-20-2026 18:33:48:431,-145738.649,-50613.737,24200.725,-36768.53,24240.199,24228.084,24135.861,24128.574
2.168,09-20-2026 18:33:48:435,-145552.772,-50352.222,28384.704,-33752.207,28431.821,28419.707,28330.031,28320.197
2.172,09-20-2026 18:33:48:439,-145393.449,-50130.939,32054.86,-20727.175,32108.683,32096.569,32009.129,31997.059
2.176,09-20-2026 18:33:48:443,-145393.449,-50130.939,29412.348,-29776.145,29461.343,29449.228,29360.179,29349.718
2.18,09-20-2026 18:33:48:447,-145459.833,-50191.289,24641.144,-35808.791,24681.422,24669.307,24577.352,24569.797
2.184,09-20-2026 18:33:48:451,-145406.725,-50110.823,23907.113,-36357.213,23946.05,23933.935,23841.533,23834.425
2.188,09-20-2026 18:33:48:455,-145220.848,-49849.308,28017.688,-33477.996,28064.135,28052.02,27962.122,27952.51
2.192,09-20-2026 18:33:48:459,-145061.525,-49628.025,31687.845,-20590.069,31740.997,31728.882,31641.219,31629.372
2.196,09-20-2026 18:33:48:463,-145074.802,-49628.025,29045.332,-29501.933,29093.656,29081.542,28992.269,28982.032
2.2,09-20-2026 18:33:48:467,-145127.91,-49688.375,24347.532,-35397.474,24387.273,24375.158,24283.025,24275.649
2.204,09-20-2026 18:33:48:471,-145072.612,-49587.703,23532.274,-35929.49,23574.877,23562.851,23470.405,23462.984
2.208,09-20-2026 18:33:48:475,-144899.251,-49338.972,27776.021,-33115.361,27754.474,27742.449,27652.595,27642.581
2.212,09-20-2026 18:33:48:479,-144738.274,-49128.508,31300.489,-20512.956,31357.575,31345.55,31257.931,31245.682
2.216,09-20-2026 18:33:48:483,-144750.657,-49128.508,28711.084,-29200.051,28763.342,28751.317,28662.089,28651.45
2.22,09-20-2026 18:33:48:487,-144812.571,-49185.908,23963.842,-35073.016,24007.249,23995.224,23903.045,23895.356
2.224,09-20-2026 18:33:48:491,-144763.04,-49109.375,23244.563,-35684.784,23286.629,23274.603,23181.978,23174.736
2.228,09-20-2026 18:33:48:495,-144577.297,-48841.512,27416.382,-32870.654,27466.226,27454.201,27364.168,27354.333
2.232,09-20-2026 18:33:48:499,-144416.32,-48631.048,30868.921,-20880.016,30925.203,30913.178,30825.291,30813.31
2.236,09-20-2026 18:33:48:503,-144428.703,-48631.048,28063.733,-29444.758,28114.784,28102.759,28013.128,28002.891
2.24,09-20-2026 18:33:48:507,-144490.617,-48688.447,23316.49,-34705.956,23358.691,23346.665,23254.084,23246.798
2.244,09-20-2026 18:33:48:511,-144441.085,-48592.782,22597.211,-35195.37,22566.008,22626.045,22533.017,22526.177
2.248,09-20-2026 18:33:48:515,-144255.342,-48344.052,26769.03,-32503.594,26817.668,26805.642,26715.207,26705.775
2.252,09-20-2026 18:33:48:519,-144094.365,-48133.588,30293.498,-20757.663,30348.707,30336.682,30248.437,30236.814
2.256,09-20-2026 18:33:48:523,-144119.131,-48133.588,27632.165,-29077.697,27682.412,27670.387,27580.488,27570.519
2.26,09-20-2026 18:33:48:527,-144181.045,-48190.987,22956.851,-34216.542,22998.38,22986.355,22893.551,22886.488
2.264,09-20-2026 18:33:48:531,-144131.514,-48095.321,22309.5,-34705.956,22349.822,22337.797,22244.59,22237.929
2.268,09-20-2026 18:33:48:535,-143945.771,-47846.591,26481.319,-32014.18,26529.42,26517.394,26426.78,26417.527
2.272,09-20-2026 18:33:48:539,-143797.176,-47636.127,30077.714,-20390.602,30132.521,30120.496,30032.117,30020.628
2.276,09-20-2026 18:33:48:543,-143809.559,-47636.127,27344.454,-28832.99,27394.164,27382.139,27292.061,27282.271
2.28,09-20-2026 18:33:48:547,-143883.856,-47712.66,22741.067,-33971.835,22710.132,22698.107,22677.231,22598.239
2.284,09-20-2026 18:33:48:551,-143834.325,-47616.994,22165.644,-34461.249,22205.698,22193.673,22100.377,22093.805
2.288,09-20-2026 18:33:48:555,-143648.582,-47368.264,26193.607,-31891.827,26241.172,26229.146,26138.353,26129.279
2.292,09-20-2026 18:33:48:559,-143499.988,-47157.8,29646.147,-20880.016,29700.149,29688.123,29599.476,29588.256
2.296,09-20-2026 18:33:48:563,-143512.37,-47157.8,26912.886,-28710.637,26961.792,26949.767,26859.421,26849.899
2.3,09-20-2026 18:33:48:567,-143586.668,-47215.199,22309.5,-33604.775,22349.822,22337.797,22244.59,22237.929
2.304,09-20-2026 18:33:48:571,-143529.358,-47130.084,21836.85,-34070.898,21879.273,21867.069,21772.79,21766.755
2.308,09-20-2026 18:33:48:575,-143346.252,-46879.744,25864.5,-31520.654,25915.104,25902.9,25808.621,25802.586
2.312,09-20-2026 18:33:48:579,-143197.479,-46683.049,29297.907,-20575.854,29355.485,29343.281,29249.001,29242.966
2.316,09-20-2026 18:33:48:583,-143220.367,-46683.049,26590.797,-28545.368,26642.877,26630.673,26536.393,26530.358
2.32,09-20-2026 18:33:48:587,-143300.476,-46754.574,22100.958,-33220.817,22077.757,22065.553,21971.273,21965.238
2.324,09-20-2026 18:33:48:591,-143243.255,-46665.167,21638.769,-33858.378,21680.79,21668.586,21574.306,21568.271
2.328,09-20-2026 18:33:48:595,-143060.15,-46414.828,25666.419,-31308.133,25716.621,25704.417,25610.137,25604.102
2.332,09-20-2026 18:33:48:599,-142911.377,-46218.133,29033.798,-20575.854,29090.84,29078.636,28984.356,28978.321
2.336,09-20-2026 18:33:48:603,-142934.265,-46218.133,26326.689,-28439.108,26312.071,26299.867,26271.749,26199.553
2.34,09-20-2026 18:33:48:607,-143014.374,-46289.658,21836.85,-33008.296,21879.273,21867.069,21772.79,21766.755
2.344,09-20-2026 18:33:48:611,-142957.153,-46200.251,21440.687,-33645.857,21482.306,21470.102,21375.823,21369.788
2.348,09-20-2026 18:33:48:615,-142774.048,-45967.793,25402.311,-31095.613,25451.976,25439.772,25345.492,25339.457
2.352,09-20-2026 18:33:48:619,-142625.274,-45753.216,28769.69,-20575.854,28826.195,28813.991,28719.712,28713.677
2.356,09-20-2026 18:33:48:623,-142648.163,-45771.098,25996.554,-28332.848,26047.427,26035.223,25940.943,25934.908
2.36,09-20-2026 18:33:48:627,-142728.271,-45842.623,21572.741,-32689.516,21614.629,21602.425,21508.145,21502.11
2.364,09-20-2026 18:33:48:631,-142671.051,-45753.216,21242.606,-33327.077,21283.823,21271.619,21177.339,21171.304
2.368,09-20-2026 18:33:48:635,-142499.389,-45502.877,24940.121,-30989.353,24988.848,24976.644,24882.364,24876.329
2.372,09-20-2026 18:33:48:639,-142350.616,-45306.181,28241.474,-21319.675,28296.906,28284.702,28190.422,28184.387
2.376,09-20-2026 18:33:48:643,-142373.504,-45306.181,25402.311,-28439.108,25451.976,25439.772,25345.492,25339.457
2.38,09-20-2026 18:33:48:647,-142442.169,-45377.707,21110.552,-32370.735,21151.5,21139.296,21045.017,21038.982
2.384,09-20-2026 18:33:48:651,-142396.393,-45306.181,20978.498,-33008.296,21019.178,21006.974,20912.694,20906.659
2.388,09-20-2026 18:33:48:655,-142213.287,-45055.842,24742.04,-30776.832,24724.203,24711.999,24617.72,24611.685
2.392,09-20-2026 18:33:48:659,-142075.958,-44859.146,27977.366,-21213.415,28032.261,28020.057,27925.778,27919.743
2.396,09-20-2026 18:33:48:663,-142098.846,-44859.146,25072.175,-28226.588,25121.17,25108.966,25014.687,25008.652
2.4,09-20-2026 18:33:48:667,-142167.511,-44930.672,20912.471,-32051.955,20953.017,20940.813,20846.533,20840.498
2.404,09-20-2026 18:33:48:671,-142123.209,-44857.403,20807.999,-32706.95,20851.674,20839.783,20745.012,20739.155
2.408,09-20-2026 18:33:48:675,-141949.402,-44622.084,24487.185,-30537.579,24475.071,24463.18,24368.408,24362.552
2.412,09-20-2026 18:33:48:679,-141797.321,-44420.382,27658.898,-21227.362,27717.057,27705.166,27610.395,27604.539
2.416,09-20-2026 18:33:48:683,-141829.91,-44420.382,24804.357,-28097.037,24856.481,24844.59,24749.818,24743.962
2.42,09-20-2026 18:33:48:687,-141905.951,-44504.424,20681.13,-31803.045,20724.537,20712.646,20617.875,20612.019
2.424,09-20-2026 18:33:48:691,-141862.499,-44437.19,20681.13,-32526.169,20724.537,20712.646,20617.875,20612.019
2.428,09-20-2026 18:33:48:695,-141677.829,-44185.063,24296.883,-30356.798,24347.934,24336.043,24241.272,24235.415
2.432,09-20-2026 18:33:48:699,-141536.61,-43983.36,27405.161,-21227.362,27462.784,27450.893,27356.121,27350.265
2.436,09-20-2026 18:33:48:703,-141558.336,-44000.169,24487.185,-28006.646,24538.639,24526.748,24431.977,24426.12
2.44,09-20-2026 18:33:48:707,-141634.377,-44084.211,20427.393,-31531.874,20470.264,20458.373,20363.601,20357.745
2.444,09-20-2026 18:33:48:711,-141590.925,-44000.169,20427.393,-32254.998,20470.264,20458.373,20363.601,20357.745
2.448,09-20-2026 18:33:48:715,-141406.255,-43764.85,23789.409,-30266.408,23839.387,23827.496,23732.725,23726.868
2.452,09-20-2026 18:33:48:719,-141265.037,-43563.148,26834.253,-22131.267,26890.668,26878.777,26784.006,26778.15
2.456,09-20-2026 18:33:48:723,-141286.763,-43563.148,23789.409,-28097.037,23839.387,23827.496,23732.725,23726.868
2.46,09-20-2026 18:33:48:727,-141362.803,-43647.19,19983.354,-31079.922,20025.285,20013.394,19918.623,19912.767
2.464,09-20-2026 18:33:48:731,-141330.214,-43579.956,20173.656,-31893.436,20215.991,20204.099,20109.328,20103.472
2.468,09-20-2026 18:33:48:735,-141145.544,-43344.637,23535.672,-29995.236,23585.114,23573.223,23478.451,23472.595
2.472,09-20-2026 18:33:48:739,-140993.463,-43126.126,26517.081,-22040.876,26572.827,26560.936,26466.164,26460.308
2.476,09-20-2026 18:33:48:743,-141026.052,-43142.935,23535.672,-27825.865,23585.114,23573.223,23478.451,23472.595
2.48,09-20-2026 18:33:48:747,-141102.092,-43226.977,19793.051,-30808.75,19834.58,19822.689,19727.918,19722.062
2.484,09-20-2026 18:33:48:751,-141069.504,-43159.743,19983.354,-31712.655,20025.285,20013.394,19918.623,19912.767
2.488,09-20-2026 18:33:48:755,-140884.833,-42924.424,23218.5,-29724.065,23267.272,23255.381,23160.609,23154.753
2.492,09-20-2026 18:33:48:759,-140743.615,-42722.722,26199.91,-22040.876,26254.985,26243.094,26148.322,26142.466
2.496,09-20-2026 18:33:48:763,-140765.341,-42739.531,23155.066,-27735.475,23203.704,23191.812,23097.041,23091.185
2.5,09-20-2026 18:33:48:767,-140852.245,-42823.573,19602.748,-30537.579,19643.875,19631.984,19537.213,19531.357
2.504,09-20-2026 18:33:48:771,-140813.487,-42744.001,19889.163,-31397.898,19933.554,19921.126,19826.981,19820.722
2.508,09-20-2026 18:33:48:775,-140642.496,-42508.637,23074.287,-29663.045,23126.322,23113.894,23022.297,23013.49
2.512,09-20-2026 18:33:48:779,-140491.622,-42304.655,25868.255,-22289.92,25926.995,25914.568,25825.206,25814.164
2.516,09-20-2026 18:33:48:783,-140521.796,-42336.037,22906.649,-27639.05,22958.281,22945.854,22854.122,22845.45
2.52,09-20-2026 18:33:48:787,-140612.321,-42414.491,19386.249,-30313.615,19429.433,19417.005,19322.457,19316.601
2.524,09-20-2026 18:33:48:791,-140572.088,-42351.728,19777.405,-31253.327,19821.527,19809.099,19714.864,19708.695
2.528,09-20-2026 18:33:48:795,-140401.097,-42116.364,22906.649,-29446.188,22958.281,22945.854,22854.122,22845.45
2.532,09-20-2026 18:33:48:799,-140260.281,-41912.382,25700.617,-22217.634,25758.955,25746.527,25657.031,25646.123
2.536,09-20-2026 18:33:48:803,-140290.456,-41928.073,22627.252,-27494.479,22678.214,22665.786,22573.831,22565.382
2.54,09-20-2026 18:33:48:807,-140370.922,-42022.218,19218.611,-30096.758,19205.379,19248.965,19154.283,19148.561
2.544,09-20-2026 18:33:48:811,-140340.747,-41959.455,19553.887,-31036.47,19597.473,19585.046,19490.632,19484.641
2.548,09-20-2026 18:33:48:815,-140159.698,-41708.4,22515.493,-29301.617,22566.187,22553.76,22461.715,22453.355
2.552,09-20-2026 18:33:48:819,-140008.824,-41520.109,25197.703,-22506.776,25254.834,25242.406,25152.507,25142.002
2.556,09-20-2026 18:33:48:823,-140038.999,-41535.8,22180.217,-27349.907,22230.106,22217.679,22125.366,22117.275
2.56,09-20-2026 18:33:48:827,-140129.523,-41629.945,18995.094,-29807.616,19037.338,19024.911,18930.05,18924.507
2.564,09-20-2026 18:33:48:831,-140099.348,-41567.182,19442.128,-30747.328,19485.446,19473.019,19378.515,19372.615
2.568,09-20-2026 18:33:48:835,-139918.299,-41331.818,22403.735,-29084.76,22398.147,22385.719,22293.541,22285.315
2.572,09-20-2026 18:33:48:839,-139767.425,-41127.836,24974.185,-22651.347,25030.78,25018.352,24928.275,24917.948
2.576,09-20-2026 18:33:48:843,-139797.6,-41143.527,21956.7,-27277.622,22006.052,21993.625,21901.133,21893.221
2.58,09-20-2026 18:33:48:847,-139888.124,-41237.672,18883.335,-29590.759,18925.311,18912.884,18817.934,18812.48
2.584,09-20-2026 18:33:48:851,-139857.95,-41174.908,19330.37,-30602.757,19373.419,19360.992,19266.399,19260.588
2.588,09-20-2026 18:33:48:855,-139676.9,-40939.545,22180.217,-28940.189,22230.106,22217.679,22125.366,22117.275
2.592,09-20-2026 18:33:48:859,-139536.084,-40751.253,24750.668,-22723.633,24806.726,24794.298,24704.042,24693.894
2.596,09-20-2026 18:33:48:863,-139566.259,-40766.944,21733.182,-27133.051,21781.998,21769.571,21620.842,21669.167
2.6,09-20-2026 18:33:48:867,-139666.842,-40861.09,18771.576,-29446.188,18813.284,18800.857,18705.817,18700.453
2.604,09-20-2026 18:33:48:871,-139630.319,-40800.74,19270.378,-30454.967,19264.477,19252.228,19156.473,19151.377
2.608,09-20-2026 18:33:48:875,-139454.501,-40567.567,22031.489,-29034.648,22080.797,22068.548,21972.793,21967.697
2.612,09-20-2026 18:33:48:879,-139315.696,-40378.113,24390.984,-23517.254,24444.494,24432.245,24336.49,24331.394
2.616,09-20-2026 18:33:48:883,-139343.457,-40392.687,21378.862,-27231.935,21427.008,21414.759,21319.004,21313.908
2.62,09-20-2026 18:33:48:887,-139435.993,-40494.7,18517.347,-29307.786,18560.397,18548.148,18452.393,18447.297
2.624,09-20-2026 18:33:48:891,-139408.232,-40436.407,19069.57,-30345.712,19113.603,19101.354,19005.599,19000.503
2.628,09-20-2026 18:33:48:895,-139232.414,-40203.233,21629.873,-28980.02,21678.465,21666.216,21570.462,21565.365
2.632,09-20-2026 18:33:48:899,-139084.356,-39999.207,23939.165,-24172.786,23991.871,23979.622,23883.867,23878.771
2.636,09-20-2026 18:33:48:903,-139121.37,-40028.353,21027.448,-27231.935,21074.968,21062.719,20966.964,20961.868
2.64,09-20-2026 18:33:48:907,-139223.16,-40130.367,18366.741,-29089.275,18409.523,18397.274,18301.519,18296.423
2.644,09-20-2026 18:33:48:911,-139195.399,-40072.073,18918.964,-30127.201,18962.728,18950.48,18854.725,18849.628
2.648,09-20-2026 18:33:48:915,-139019.58,-39838.9,21529.468,-28870.765,21577.882,21565.634,21469.879,21464.783
2.652,09-20-2026 18:33:48:919,-138880.776,-39649.447,23688.155,-24227.413,23790.705,23728.165,23682.701,23677.605
2.656,09-20-2026 18:33:48:923,-138908.537,-39678.593,20826.64,-27068.052,20873.802,20861.554,20765.799,20760.703
2.66,09-20-2026 18:33:48:927,-139010.327,-39780.607,18266.337,-28870.765,18308.94,18296.691,18200.936,18195.84
2.664,09-20-2026 18:33:48:931,-138982.566,-39722.313,18868.762,-29963.318,18912.437,18900.188,18804.433,18799.337
2.668,09-20-2026 18:33:48:935,-138806.747,-39489.14,21378.862,-28652.254,21427.008,21414.759,21319.004,21313.908
2.672,09-20-2026 18:33:48:939,-138667.943,-39299.686,23487.347,-24227.413,23539.248,23526.999,23431.244,23426.148
2.676,09-20-2026 18:33:48:943,-138695.704,-39328.833,20575.63,-26958.797,20622.345,20610.097,20514.342,20509.245
2.68,09-20-2026 18:33:48:947,-138797.493,-39430.847,18115.731,-28652.254,18158.065,18145.817,18050.062,18044.966
2.684,09-20-2026 18:33:48:951,-138778.986,-39372.553,18718.155,-29744.807,18761.563,18749.314,18653.559,18648.463
2.688,09-20-2026 18:33:48:955,-138593.914,-39139.38,21178.054,-28597.627,21175.551,21163.302,21067.547,21062.451
2.692,09-20-2026 18:33:48:959,-138455.109,-38949.926,23135.933,-24555.179,23187.208,23174.959,23079.204,23074.108
2.696,09-20-2026 18:33:48:963,-138492.124,-38979.073,20374.822,-26849.541,20370.888,20358.639,20262.885,20257.788
2.7,09-20-2026 18:33:48:967,-138593.914,-39081.086,18015.327,-28488.371,18057.483,18045.234,17949.479,17944.383
2.704,09-20-2026 18:33:48:971,-138569.506,-39030.706,18636.75,-29596.302,18681.812,18669.652,18573.54,18568.891
2.708,09-20-2026 18:33:48:975,-138393.016,-38803.478,21055.03,-28592.083,21061.825,21049.666,20996.826,20948.904
2.712,09-20-2026 18:33:48:979,-138250.144,-38616.349,22911.924,-24872.753,22965.836,22953.677,22857.564,22852.915
2.716,09-20-2026 18:33:48:983,-138292.165,-38643.082,20191.359,-26806.805,20239.639,20227.479,20131.367,20126.718
2.72,09-20-2026 18:33:48:987,-138393.016,-38750.012,17902.63,-28368.923,17946.171,17934.012,17837.899,17833.25
2.724,09-20-2026 18:33:48:991,-138376.208,-38709.913,18593.567,-29484.723,18638.539,18626.379,18530.267,18525.618
2.728,09-20-2026 18:33:48:995,-138199.718,-38469.319,20925.48,-28443.31,20975.279,20963.12,20867.007,20862.358
2.732,09-20-2026 18:33:48:999,-138056.846,-38282.19,22782.373,-24872.753,22836.017,22823.858,22727.746,22723.096
2.736,09-20-2026 18:33:49:003,-138098.867,-38308.923,20018.625,-26695.225,20066.547,20054.387,19958.275,19953.626
2.74,09-20-2026 18:33:49:007,-138199.718,-38429.22,17816.263,-28257.344,17859.625,17847.466,17751.353,17746.704
2.744,09-20-2026 18:33:49:011,-138182.91,-38389.121,18507.2,-29373.143,18551.993,18539.833,18443.721,18439.072
2.748,09-20-2026 18:33:49:015,-138014.825,-38148.527,20839.113,-28443.31,20888.733,20876.574,20780.462,20775.812
2.752,09-20-2026 18:33:49:019,-137871.952,-37961.398,22480.088,-25244.686,22533.107,22520.947,22424.835,22420.185
2.756,09-20-2026 18:33:49:023,-137905.569,-38001.497,19759.523,-26620.838,19806.909,19794.75,19698.637,19693.988
2.76,09-20-2026 18:33:49:027,-138014.825,-38108.428,17600.345,-28071.377,17643.26,17631.101,17534.988,17530.339
2.764,09-20-2026 18:33:49:031,-137998.016,-38068.329,18334.465,-29187.176,18378.901,18366.741,18270.629,18265.98
2.768,09-20-2026 18:33:49:035,-137829.931,-37827.735,20623.195,-28294.537,20672.368,20660.209,20564.097,20559.447
2.772,09-20-2026 18:33:49:039,-137687.059,-37640.606,22177.803,-25393.459,22230.196,22218.036,22121.924,22117.275
2.776,09-20-2026 18:33:49:043,-137729.08,-37680.705,19543.605,-26509.258,19590.544,19578.385,19482.272,19477.623
2.78,09-20-2026 18:33:49:047,-137838.335,-37787.636,17513.978,-27885.411,17556.714,17544.555,17448.442,17443.793
2.784,09-20-2026 18:33:49:051,-137821.527,-37747.537,18248.098,-29038.403,18292.355,18280.195,18184.083,18179.434
2.788,09-20-2026 18:33:49:055,-137645.037,-37520.309,20493.644,-28220.15,20542.55,20530.39,20434.278,20429.629
2.792,09-20-2026 18:33:49:059,-137502.165,-37333.18,21961.885,-25653.812,22013.831,22001.671,21905.559,21900.91
2.796,09-20-2026 18:33:49:063,-137544.186,-37359.913,19414.055,-26397.678,19460.725,19448.566,19352.453,19347.804
2.8,09-20-2026 18:33:49:067,-137653.442,-37480.21,17427.61,-27736.637,17470.168,17458.009,17361.896,17357.247
2.804,09-20-2026 18:33:49:071,-137635.605,-37433.226,18174.829,-28871.167,18219.13,18207.284,18110.277,18105.941
2.808,09-20-2026 18:33:49:075,-137470.381,-37212.749,20383.897,-28071.556,20430.791,20418.944,20321.938,20317.602
2.812,09-20-2026 18:33:49:079,-137327.687,-37016.769,21755.042,-25595.34,21803.546,21791.699,21694.693,21690.356
2.816,09-20-2026 18:33:49:083,-137372.749,-37065.764,19241.276,-26265.982,19286.829,19274.982,19177.976,19173.639
2.82,09-20-2026 18:33:49:087,-137485.401,-37176.003,17298.82,-27581.472,17342.093,17330.246,17233.24,17228.903
2.824,09-20-2026 18:33:49:091,-137470.381,-37139.256,18098.655,-28767.992,18142.866,18131.02,18034.013,18029.677
2.828,09-20-2026 18:33:49:095,-137297.647,-36918.779,20307.722,-28045.762,20354.527,20342.68,20245.674,20241.337
2.832,09-20-2026 18:33:49:099,-137162.463,-36722.799,21602.693,-25801.692,21612.885,21601.039,21542.164,21499.696
2.836,09-20-2026 18:33:49:103,-137207.524,-36771.794,19127.014,-26188.6,19172.432,19160.586,19063.579,19059.243
2.84,09-20-2026 18:33:49:107,-137320.177,-36894.281,17222.645,-27478.296,17265.829,17253.982,17156.976,17152.639
2.844,09-20-2026 18:33:49:111,-137305.157,-36845.286,18022.48,-28664.816,18066.602,18054.756,17957.749,17953.413
2.848,09-20-2026 18:33:49:115,-137139.933,-36624.809,20231.547,-27994.174,20240.13,20228.284,20131.277,20126.941
2.852,09-20-2026 18:33:49:119,-136997.239,-36441.077,21412.256,-25879.073,21460.357,21448.51,21351.504,21347.168
2.856,09-20-2026 18:33:49:123,-137042.3,-36477.823,19012.751,-26111.218,19058.036,19046.19,18949.183,18944.847
2.86,09-20-2026 18:33:49:127,-137162.463,-36600.311,17146.47,-27375.12,17189.564,17177.718,17080.711,17076.375
2.864,09-20-2026 18:33:49:131,-137147.443,-36563.565,17946.305,-28561.64,17990.338,17978.492,17881.485,17877.149
2.868,09-20-2026 18:33:49:135,-136982.219,-36343.087,20117.285,-27865.205,20163.866,20152.02,20055.013,20050.677
2.872,09-20-2026 18:33:49:139,-136839.525,-36147.107,21297.994,-25801.692,21345.961,21334.114,21237.108,21232.771
2.876,09-20-2026 18:33:49:143,-136892.097,-36196.102,18860.402,-26008.043,18905.508,18893.661,18796.655,18792.319
2.88,09-20-2026 18:33:49:147,-137012.26,-36318.59,17032.208,-27271.945,17075.168,17063.322,16966.315,16961.979
2.884,09-20-2026 18:33:49:151,-136997.239,-36281.843,17832.043,-28458.465,17875.942,17864.095,17767.089,17762.753
2.888,09-20-2026 18:33:49:155,-136824.505,-36061.366,19964.936,-27865.205,20011.338,19999.492,19902.485,19898.149
2.892,09-20-2026 18:33:49:159,-136681.811,-35877.634,20993.295,-26188.6,21040.904,20990.926,20932.051,20927.715
2.896,09-20-2026 18:33:49:163,-136734.383,-35914.381,18669.965,-25930.661,18714.847,18703.001,18605.994,18601.658
2.9,09-20-2026 18:33:49:167,-136847.036,-36049.117,16917.946,-27117.181,16960.772,16948.925,16851.919,16847.583
2.904,09-20-2026 18:33:49:171,-136830.138,-36002.312,17743.128,-28301.019,17787.608,17773.705,17678.889,17674.15
2.908,09-20-2026 18:33:49:175,-136662.768,-35788.272,19859.212,-27718.756,19906.419,19889.789,19797.7,19792.961
2.912,09-20-2026 18:33:49:179,-136523.293,-35596.762,20830.529,-26065.129,20878.988,20861.107,20770.269,20765.531
2.916,09-20-2026 18:33:49:183,-136572.109,-35653.089,18575.685,-25808.933,18586.504,18571.573,18477.785,18473.046
2.92,09-20-2026 18:33:49:187,-136690.663,-35777.007,16841.19,-27020.04,16884.508,16871.767,16775.789,16771.05
2.924,09-20-2026 18:33:49:191,-136676.715,-35743.211,17673.748,-28207.857,17718.138,17704.325,17609.42,17604.681
2.928,09-20-2026 18:33:49:195,-136509.345,-35517.905,19789.832,-27625.594,19836.95,19820.409,19728.231,19723.492
2.932,09-20-2026 18:33:49:199,-136369.87,-35337.661,20657.08,-26065.129,20705.315,20687.657,20596.596,20591.858
2.936,09-20-2026 18:33:49:203,-136418.687,-35382.722,18436.926,-25715.771,18482.3,18467.503,18373.581,18368.842
2.94,09-20-2026 18:33:49:207,-136537.24,-35517.905,16737.12,-26880.297,16780.304,16767.698,16671.585,16666.846
2.944,09-20-2026 18:33:49:211,-136523.293,-35472.844,17604.368,-28091.404,17648.669,17634.945,17539.95,17535.212
2.948,09-20-2026 18:33:49:215,-136355.923,-35258.804,19685.762,-27509.141,19732.746,19716.34,19624.027,19619.288
2.952,09-20-2026 18:33:49:219,-136223.422,-35078.56,20518.32,-25925.386,20566.377,20548.897,20457.658,20452.919
2.956,09-20-2026 18:33:49:223,-136279.212,-35123.621,18332.856,-25576.028,18378.096,18363.433,18269.377,18264.639
2.96,09-20-2026 18:33:49:227,-136397.765,-35258.804,16633.051,-26787.135,16676.1,16663.628,16567.381,16562.643
2.964,09-20-2026 18:33:49:231,-136383.818,-35225.008,17500.298,-27974.952,17544.465,17530.876,17435.746,17431.008
2.968,09-20-2026 18:33:49:235,-136223.422,-34999.703,19581.693,-27392.689,19628.542,19612.27,19519.823,19515.085
2.972,09-20-2026 18:33:49:239,-136083.947,-34819.458,20310.181,-25808.933,20357.969,20340.758,20249.25,20244.511
2.976,09-20-2026 18:33:49:243,-136139.737,-34875.785,18194.096,-25459.576,18204.423,18189.984,18095.704,18090.966
2.98,09-20-2026 18:33:49:247,-136258.291,-34999.703,16528.981,-26670.683,16571.896,16559.558,16463.177,16458.439
2.984,09-20-2026 18:33:49:251,-136244.343,-34965.907,17396.229,-27858.499,17440.262,17426.806,17331.543,17326.804
2.988,09-20-2026 18:33:49:255,-136076.973,-34751.866,19442.933,-27276.236,19489.604,19473.51,19380.885,19376.146
2.992,09-20-2026 18:33:49:259,-135944.472,-34571.622,20171.421,-25669.19,20219.03,20201.998,20110.312,20105.573
2.996,09-20-2026 18:33:49:263,-136000.262,-34627.948,18055.337,-25343.123,18100.219,18085.914,17991.5,17986.762
3,09-20-2026 18:33:49:267,-136118.816,-34751.866,16424.911,-26554.23,16467.692,16455.488,16358.974,16354.235
3.004,09-20-2026 18:33:49:271,-136103.616,-34713.958,17281.922,-27737.71,17322.557,17310.666,17215.671,17209.234
3.008,09-20-2026 18:33:49:275,-135941.566,-34502.957,19332.203,-27149.859,19370.022,19358.131,19265.952,19256.698
3.012,09-20-2026 18:33:49:279,-135805.444,-34323.607,19950.541,-25527.391,19987.511,19975.62,19884.291,19874.188
3.016,09-20-2026 18:33:49:283,-135863.782,-34376.357,17900.26,-25198.194,17940.047,17928.155,17834.01,17826.723
3.02,09-20-2026 18:33:49:287,-135986.94,-34513.507,16273.053,-26420.924,16315.075,16303.184,16206.803,16201.751
3.024,09-20-2026 18:33:49:291,-135973.976,-34471.307,17184.289,-27620.14,17225.059,17213.168,17118.039,17111.736
3.028,09-20-2026 18:33:49:295,-135811.926,-34260.307,19202.026,-27008.775,19240.024,19228.133,19135.775,19159.2
3.032,09-20-2026 18:33:49:299,-135675.804,-34080.956,19820.365,-25386.307,19857.513,19845.622,19754.114,19744.19
3.036,09-20-2026 18:33:49:303,-135734.142,-34133.707,17770.084,-25057.11,17810.049,17798.158,17703.833,17696.725
3.04,09-20-2026 18:33:49:307,-135857.3,-34270.857,16142.877,-26279.84,16185.077,16173.186,16076.626,16071.754
3.044,09-20-2026 18:33:49:311,-135844.336,-34228.657,17086.657,-27479.056,17127.561,17115.67,17020.406,17014.237
3.048,09-20-2026 18:33:49:315,-135682.286,-34017.656,19104.394,-26867.691,19142.526,19130.635,19038.143,19029.202
3.052,09-20-2026 18:33:49:319,-135546.164,-33838.306,19690.188,-25245.222,19727.516,19715.624,19623.938,19614.192
3.056,09-20-2026 18:33:49:323,-135604.502,-33891.056,17639.907,-24916.026,17680.051,17668.16,17573.657,17566.728
3.06,09-20-2026 18:33:49:327,-135727.66,-34028.206,16045.244,-26162.27,16087.579,16075.688,15978.994,15974.255
3.064,09-20-2026 18:33:49:331,-135708.214,-33996.556,16956.48,-27361.486,16997.563,16985.672,16890.23,16884.24
3.068,09-20-2026 18:33:49:335,-135546.164,-33775.006,18974.217,-26750.121,19012.528,19000.637,18907.966,18899.205
3.072,09-20-2026 18:33:49:339,-135410.042,-33595.655,19560.012,-25127.652,19597.518,19585.627,19493.761,19484.194
3.076,09-20-2026 18:33:49:343,-135468.38,-33658.956,17509.731,-24821.97,17550.053,17538.162,17443.48,17436.73
3.08,09-20-2026 18:33:49:347,-135591.538,-33796.106,15915.068,-26068.214,15957.581,15945.69,15848.817,15844.258
3.084,09-20-2026 18:33:49:351,-135578.574,-33764.456,16826.304,-27267.43,16867.565,16855.674,16760.053,16754.242
3.088,09-20-2026 18:33:49:355,-135416.524,-33553.455,18844.04,-26679.579,18882.53,18870.639,18777.79,18769.207
3.092,09-20-2026 18:33:49:359,-135280.402,-33374.105,19429.835,-25057.11,19467.52,19455.629,19363.584,19354.197
3.096,09-20-2026 18:33:49:363,-135338.74,-33437.405,17379.554,-24751.428,17420.056,17408.164,17313.304,17306.732
3.1,09-20-2026 18:33:49:367,-135461.898,-33574.555,15817.435,-25997.672,15860.083,15848.191,15751.185,15746.759
3.104,09-20-2026 18:33:49:371,-135444.911,-33533.965,16720.893,-27172.837,16761.707,16750.084,16652.541,16648.295
3.108,09-20-2026 18:33:49:375,-135282.19,-33327.434,18778.148,-26562.634,18816.056,18804.433,18706.89,18702.643
3.112,09-20-2026 18:33:49:379,-135144.503,-33150.409,19316.199,-24919.781,19353.347,19341.724,19244.181,19239.935
3.116,09-20-2026 18:33:49:383,-135207.088,-33219.252,17258.944,-24638.149,17298.999,17287.376,17189.833,17185.586
3.12,09-20-2026 18:33:49:387,-135325.999,-33347.104,15676.441,-25882.024,15718.73,15707.107,15609.564,15605.317
3.124,09-20-2026 18:33:49:391,-135313.482,-33317.6,16625.943,-27055.49,16666.891,16655.268,16557.725,16553.478
3.128,09-20-2026 18:33:49:395,-135150.762,-33101.235,18651.547,-26421.818,18689.635,18678.012,18580.469,18576.222
3.132,09-20-2026 18:33:49:399,-135013.075,-32924.209,19221.249,-24802.434,19258.531,19246.908,19149.365,19145.118
3.136,09-20-2026 18:33:49:403,-135075.66,-32993.052,17163.994,-24520.802,17204.182,17192.56,17095.016,17090.77
3.14,09-20-2026 18:33:49:407,-135194.571,-33130.739,15581.49,-25764.677,15623.914,15612.291,15514.748,15510.501
3.144,09-20-2026 18:33:49:411,-135182.054,-33091.4,16530.993,-26961.613,16572.075,16560.452,16462.909,16458.662
3.148,09-20-2026 18:33:49:415,-135019.333,-32875.035,18556.597,-26327.941,18594.819,18583.196,18485.653,18481.406
3.152,09-20-2026 18:33:49:419,-134881.647,-32707.844,19094.648,-24685.088,19132.11,19120.487,19022.944,19018.697
3.156,09-20-2026 18:33:49:423,-134944.232,-32776.687,17037.394,-24403.456,17077.761,17066.138,16968.595,16964.348
3.16,09-20-2026 18:33:49:427,-135069.401,-32914.374,15454.89,-25670.8,15497.493,15485.87,15388.327,15384.08
3.164,09-20-2026 18:33:49:431,-135056.884,-32875.035,16436.042,-26844.266,16477.259,16465.636,16368.093,16363.846
3.168,09-20-2026 18:33:49:435,-134900.422,-32668.505,18461.647,-26210.594,18500.002,18488.38,18390.837,18386.59
3.172,09-20-2026 18:33:49:439,-134768.994,-32491.479,18999.698,-24591.21,19037.294,19025.671,18928.128,18923.881
3.176,09-20-2026 18:33:49:443,-134831.579,-32560.323,16910.793,-24309.578,16951.339,16939.717,16842.174,16837.927
3.18,09-20-2026 18:33:49:447,-134956.748,-32698.009,15391.59,-25576.922,15434.282,15422.659,15325.116,15320.869
3.184,09-20-2026 18:33:49:451,-134944.232,-32668.505,16341.092,-26726.92,16382.443,16370.82,16273.277,16269.03
3.188,09-20-2026 18:33:49:455,-134781.511,-32452.14,18366.697,-26069.778,18405.186,18393.563,18296.02,18291.774
3.192,09-20-2026 18:33:49:459,-134650.083,-32284.949,18904.748,-24450.394,18942.478,18930.855,18833.312,18829.065
3.196,09-20-2026 18:33:49:463,-134718.926,-32353.792,16815.843,-24192.232,16856.523,16844.9,16747.357,16743.111
3.2,09-20-2026 18:33:49:467,-134844.096,-32491.479,15296.64,-25459.576,15339.466,15327.843,15230.3,15226.053
3.204,09-20-2026 18:33:49:471,-134825.454,-32450.307,16252.579,-26627.499,16296.031,16284.14,16186.195,16182.082
3.208,09-20-2026 18:33:49:475,-134669.886,-32242.615,18285.426,-26015.419,18328.877,18316.986,18219.041,18214.928
3.212,09-20-2026 18:33:49:479,-134540.246,-32080.073,18778.237,-24397.778,18821.689,18809.798,18711.852,18707.74
3.216,09-20-2026 18:33:49:483,-134612.845,-32152.314,16714.59,-24135.458,16758.042,16746.15,16648.205,16644.092
3.22,09-20-2026 18:33:49:487,-134737.299,-32287.765,15174.555,-25403.339,15218.006,15206.115,15108.17,15104.057
3.224,09-20-2026 18:33:49:491,-134721.742,-32251.645,16190.978,-26583.779,16234.43,16222.538,16124.593,16120.48
3.228,09-20-2026 18:33:49:495,-134566.174,-32043.953,18193.024,-25927.979,18236.475,18224.584,18126.639,18122.526
3.232,09-20-2026 18:33:49:499,-134441.72,-31881.411,18685.835,-24332.198,18729.287,18717.396,18619.45,18615.337
3.236,09-20-2026 18:33:49:503,-134514.318,-31953.652,16622.188,-24069.878,16665.639,16653.748,16555.803,16551.69
3.24,09-20-2026 18:33:49:507,-134638.773,-32089.103,15112.953,-25337.759,15156.405,15144.514,15046.569,15042.456
3.244,09-20-2026 18:33:49:511,-134623.216,-32052.983,16098.576,-26474.479,16142.028,16130.136,16032.191,16028.078
3.248,09-20-2026 18:33:49:515,-134462.462,-31845.29,18100.621,-25840.539,18144.073,18132.182,18034.237,18030.124
3.252,09-20-2026 18:33:49:519,-134338.007,-31682.748,18593.433,-24222.898,18636.885,18624.993,18527.048,18522.935
3.256,09-20-2026 18:33:49:523,-134410.606,-31754.989,16529.786,-23960.578,16573.237,16561.346,16463.401,16459.288
3.26,09-20-2026 18:33:49:527,-134540.246,-31899.471,15020.551,-25250.319,15064.003,15052.112,14954.166,14950.054
3.264,09-20-2026 18:33:49:531,-134524.689,-31863.35,16036.974,-26408.899,16080.426,16068.535,15970.59,15966.477
3.268,09-20-2026 18:33:49:535,-134374.307,-31655.658,18008.219,-25774.959,18051.671,18039.78,17941.835,17937.722
3.272,09-20-2026 18:33:49:539,-134255.038,-31493.116,18501.031,-24179.178,18544.482,18532.591,18434.646,18430.533
3.276,09-20-2026 18:33:49:543,-134327.636,-31565.357,16437.383,-23916.858,16480.835,16468.944,16370.999,16366.886
3.28,09-20-2026 18:33:49:547,-134457.276,-31709.839,14958.95,-25206.599,15002.401,14990.51,14892.565,14888.452
3.284,09-20-2026 18:33:49:551,-134441.72,-31664.688,15944.572,-26343.319,15988.024,15976.133,15878.188,15874.075
3.288,09-20-2026 18:33:49:555,-134286.151,-31466.026,17946.618,-25687.519,17990.07,17978.179,17880.233,17876.121
3.292,09-20-2026 18:33:49:559,-134166.883,-31303.484,18408.629,-24069.878,18452.08,18440.189,18342.244,18338.131
3.296,09-20-2026 18:33:49:563,-134244.667,-31384.755,16344.981,-23851.278,16388.433,16376.542,16278.597,16274.484
3.3,09-20-2026 18:33:49:567,-134369.121,-31520.207,14866.548,-25119.159,14909.999,14898.108,14800.163,14796.05
3.304,09-20-2026 18:33:49:571,-134353.609,-31476.442,15895.532,-26243.63,15937.241,15925.394,15829.416,15825.259
3.308,09-20-2026 18:33:49:575,-134202.556,-31270.448,17880.144,-25603.208,17918.946,17907.1,17814.027,17809.87
3.312,09-20-2026 18:33:49:579,-134085.612,-31115.953,18307.599,-23991.111,18345.775,18333.929,18241.482,18237.325
3.316,09-20-2026 18:33:49:583,-134163.574,-31193.2,16261.922,-23748.192,16303.094,16291.248,16195.806,16191.648
3.32,09-20-2026 18:33:49:587,-134290.264,-31330.53,14765.831,-25029.036,14809.193,14797.347,14699.714,14695.557
3.324,09-20-2026 18:33:49:591,-134275.646,-31296.197,15803.935,-26155.296,15845.777,15833.931,15737.819,15733.661
3.328,09-20-2026 18:33:49:595,-134119.72,-31090.204,17788.546,-25492.79,17827.483,17815.637,17722.43,17718.273
3.332,09-20-2026 18:33:49:599,-134007.649,-30927.125,18216.001,-23902.777,18254.312,18242.466,18149.885,18145.727
3.336,09-20-2026 18:33:49:603,-134080.739,-31012.956,16139.792,-23659.858,16181.143,16169.297,16073.676,16069.518
3.34,09-20-2026 18:33:49:607,-134207.429,-31150.285,14674.233,-24940.702,14717.73,14705.883,14608.117,14603.959
3.344,09-20-2026 18:33:49:611,-134192.811,-31107.37,15712.338,-26066.962,15754.314,15742.468,15646.221,15642.064
3.348,09-20-2026 18:33:49:615,-134036.885,-30901.376,17696.949,-25404.456,17736.02,17724.173,17630.833,17626.675
3.352,09-20-2026 18:33:49:619,-133919.94,-30746.881,18093.871,-23814.443,18132.361,18120.515,18027.755,18023.597
3.356,09-20-2026 18:33:49:623,-133997.903,-30824.128,16048.195,-23593.607,16089.68,16077.833,15982.078,15977.921
3.36,09-20-2026 18:33:49:627,-134119.72,-30961.458,14582.636,-24874.452,14626.266,14614.42,14516.519,14512.362
3.364,09-20-2026 18:33:49:631,-134100.23,-30927.125,15651.273,-25978.628,15693.339,15681.492,15585.156,15580.999
3.368,09-20-2026 18:33:49:635,-133944.304,-30721.132,17605.352,-25316.122,17644.556,17632.71,17539.235,17535.078
3.372,09-20-2026 18:33:49:639,-133827.36,-30566.636,18032.806,-23726.109,18071.385,18059.539,17966.69,17962.532
3.376,09-20-2026 18:33:49:643,-133900.45,-30643.884,15956.597,-23505.273,15998.216,15986.37,15890.481,15886.324
3.38,09-20-2026 18:33:49:647,-134027.139,-30781.213,14491.038,-24786.118,14534.803,14522.957,14424.922,14420.764
3.384,09-20-2026 18:33:49:651,-134007.649,-30746.881,15559.675,-25890.294,15601.875,15590.029,15493.559,15489.401
3.388,09-20-2026 18:33:49:655,-133851.723,-30540.887,17544.287,-25227.788,17583.581,17571.734,17478.17,17474.013
3.392,09-20-2026 18:33:49:659,-133734.779,-30386.392,17941.209,-23615.691,17979.922,17968.076,17875.092,17870.935
3.396,09-20-2026 18:33:49:663,-133812.741,-30472.223,15865,-23439.023,15906.753,15894.907,15798.884,15794.726
3.4,09-20-2026 18:33:49:667,-133934.559,-30609.552,14429.973,-24719.867,14473.827,14461.981,14363.857,14359.699
3.404,09-20-2026 18:33:49:671,-133913.101,-30566.815,15494.185,-25828.916,15538.173,15524.404,15427.889,15423.866
3.408,09-20-2026 18:33:49:675,-133758.203,-30370.12,17470.079,-25160.867,17514.067,17497.258,17403.783,17399.76
3.412,09-20-2026 18:33:49:679,-133645.55,-30220.631,17847.823,-23574.251,17891.811,17874.422,17781.528,17777.505
3.416,09-20-2026 18:33:49:683,-133720.652,-30299.31,15784.757,-23365.485,15828.745,15814.53,15718.462,15714.439
3.42,09-20-2026 18:33:49:687,-133842.693,-30440.93,14360.951,-24680.707,14404.939,14392.914,14294.656,14290.633
3.424,09-20-2026 18:33:49:691,-133823.917,-30401.591,15407.013,-25787.163,15451.001,15437.366,15340.717,15336.694
3.428,09-20-2026 18:33:49:695,-133669.02,-30197.028,17382.907,-25098.237,17426.895,17439.233,17316.612,17312.588
3.432,09-20-2026 18:33:49:699,-133556.367,-30047.539,17760.651,-23511.621,17804.64,17816.397,17694.356,17690.333
3.436,09-20-2026 18:33:49:703,-133631.469,-30134.085,15697.585,-23302.856,15741.574,15727.492,15631.29,15627.267
3.44,09-20-2026 18:33:49:707,-133758.203,-30267.838,14273.779,-24597.201,14317.768,14305.876,14207.484,14203.461
3.444,09-20-2026 18:33:49:711,-133734.734,-30228.499,15348.898,-25724.533,15392.886,15379.341,15282.603,15278.58
3.448,09-20-2026 18:33:49:715,-133579.836,-30023.936,17324.792,-25035.608,17368.781,17352.196,17258.497,17254.474
3.452,09-20-2026 18:33:49:719,-133471.877,-29882.315,17702.537,-23428.115,17746.525,17729.359,17636.242,17632.218
3.456,09-20-2026 18:33:49:723,-133551.673,-29968.861,15639.471,-23240.226,15683.459,15669.467,15573.176,15569.152
3.46,09-20-2026 18:33:49:727,-133678.408,-30110.482,14215.665,-24534.571,14259.653,14247.851,14149.369,14145.346
3.464,09-20-2026 18:33:49:731,-133659.632,-30063.275,15319.841,-25641.027,15363.829,15350.329,15253.546,15249.522
3.468,09-20-2026 18:33:49:735,-133504.734,-29866.58,17266.678,-24931.225,17310.666,17323.183,17200.383,17196.359
3.472,09-20-2026 18:33:49:739,-133392.082,-29724.959,17615.365,-23365.485,17659.353,17642.321,17549.07,17545.047
3.476,09-20-2026 18:33:49:743,-133476.571,-29819.373,15552.299,-23219.35,15596.287,15582.429,15486.004,15481.981
3.48,09-20-2026 18:33:49:747,-133598.612,-29953.126,14157.55,-24492.818,14201.538,14189.826,14091.255,14087.232
3.484,09-20-2026 18:33:49:751,-133579.836,-29905.919,15290.784,-25578.398,15334.772,15321.316,15224.488,15220.465
3.488,09-20-2026 18:33:49:755,-133424.939,-29701.356,17237.621,-24868.596,17281.609,17265.158,17171.325,17167.302
3.492,09-20-2026 18:33:49:759,-133316.98,-29567.603,17586.308,-23323.732,17601.239,17613.309,17520.013,17515.989
3.496,09-20-2026 18:33:49:763,-133396.776,-29662.017,15523.242,-23177.597,15538.173,15553.417,15427.889,15423.866
3.5,09-20-2026 18:33:49:767,-133523.51,-29795.769,14157.55,-24451.065,14201.538,14189.826,14091.255,14087.232
3.504,09-20-2026 18:33:49:771,-133494.497,-29746.953,15261.413,-25519.925,15303.479,15291.991,15193.33,15189.351
3.508,09-20-2026 18:33:49:775,-133342.953,-29550.437,17210.843,-24835.962,17249.825,17238.336,17139.675,17135.697
3.512,09-20-2026 18:33:49:779,-133231.82,-29417.086,17521.622,-23286.986,17560.112,17548.623,17449.962,17445.984
3.516,09-20-2026 18:33:49:783,-133317.695,-29508.326,15487.434,-23146.17,15529.143,15517.654,15418.993,15415.015
3.52,09-20-2026 18:33:49:787,-133433.879,-29648.695,14103.057,-24433.631,14146.956,14135.467,14036.806,14032.828
3.524,09-20-2026 18:33:49:791,-133408.622,-29599.566,15261.413,-25499.809,15303.479,15291.991,15193.33,15189.351
3.528,09-20-2026 18:33:49:795,-133252.026,-29403.049,17182.591,-24815.845,17221.617,17210.128,17111.467,17107.489
3.532,09-20-2026 18:33:49:799,-133140.893,-29269.699,17493.369,-23266.87,17531.904,17520.415,17421.754,17417.776
3.536,09-20-2026 18:33:49:803,-133226.768,-29367.957,15459.182,-23126.054,15500.935,15489.446,15390.785,15386.807
3.54,09-20-2026 18:33:49:807,-133348.004,-29501.308,14074.804,-24413.514,14118.748,14107.259,14008.598,14004.62
3.544,09-20-2026 18:33:49:811,-133317.695,-29459.197,15233.161,-25479.692,15275.272,15263.783,15165.122,15161.144
3.548,09-20-2026 18:33:49:815,-133156.047,-29262.68,17154.338,-24775.612,17221.617,17181.92,17111.467,17107.489
3.552,09-20-2026 18:33:49:819,-133049.966,-29129.33,17465.117,-23226.636,17503.696,17492.207,17393.546,17389.568
3.556,09-20-2026 18:33:49:823,-133130.79,-29227.588,15402.677,-23085.82,15444.519,15433.03,15334.37,15330.391
3.56,09-20-2026 18:33:49:827,-133246.974,-29360.939,14074.804,-24393.397,14118.748,14107.259,14008.598,14004.62
3.564,09-20-2026 18:33:49:831,-133216.665,-29318.828,15204.908,-25439.459,15247.064,15235.575,15136.914,15132.936
3.568,09-20-2026 18:33:49:835,-133055.017,-29122.311,17126.085,-24735.379,17193.409,17153.712,17083.259,17079.281
3.572,09-20-2026 18:33:49:839,-132948.936,-28988.961,17408.611,-23186.403,17447.28,17435.791,17337.131,17333.152
3.576,09-20-2026 18:33:49:843,-133034.811,-29087.219,15346.171,-23045.587,15416.311,15376.614,15306.162,15302.183
3.58,09-20-2026 18:33:49:847,-133150.996,-29227.588,13990.046,-24333.048,14034.124,14022.635,13923.975,13919.996
3.584,09-20-2026 18:33:49:851,-133120.687,-29178.459,15148.403,-25358.993,15190.648,15179.159,15080.498,15076.52
3.588,09-20-2026 18:33:49:855,-132959.039,-28981.942,17041.328,-24634.796,17080.577,17069.088,16970.428,16966.449
3.592,09-20-2026 18:33:49:859,-132852.958,-28855.61,17323.854,-23085.82,17362.656,17351.167,17252.507,17248.528
3.596,09-20-2026 18:33:49:863,-132933.781,-28946.85,15261.413,-22965.121,15303.479,15291.991,15193.33,15189.351
3.6,09-20-2026 18:33:49:867,-133055.017,-29087.219,13933.541,-24252.582,13977.708,13966.219,13867.559,13863.58
3.604,09-20-2026 18:33:49:871,-133017.735,-29034.648,15059.175,-25256.22,15101.017,15089.797,14991.002,14986.979
3.608,09-20-2026 18:33:49:875,-132859.663,-28841.484,16996.266,-24523.976,17035.024,17023.804,16925.009,16920.986
3.612,09-20-2026 18:33:49:879,-132757.382,-28714.928,17220.857,-22975.805,17259.257,17248.037,17149.242,17145.219
3.616,09-20-2026 18:33:49:883,-132841.066,-28814.841,15171.47,-22871.199,15213.134,15201.913,15103.118,15099.095
3.62,09-20-2026 18:33:49:887,-132957.296,-28948.057,13823.928,-24168.315,13867.738,13856.517,13757.722,13753.699
3.624,09-20-2026 18:33:49:891,-132929.401,-28901.431,15003.027,-25214.377,15044.959,15033.739,14934.944,14930.921
3.628,09-20-2026 18:33:49:895,-132771.329,-28701.607,16883.971,-24482.134,16922.908,16911.687,16812.893,16808.869
3.632,09-20-2026 18:33:49:899,-132669.047,-28575.051,17164.709,-22933.963,17203.199,17191.978,17093.184,17089.16
3.636,09-20-2026 18:33:49:903,-132752.732,-28674.964,15087.249,-22808.435,15129.046,15117.826,15019.031,15015.008
3.64,09-20-2026 18:33:49:907,-132873.611,-28814.841,13767.781,-24126.473,13811.679,13800.459,13701.664,13697.641
3.644,09-20-2026 18:33:49:911,-132836.417,-28761.554,14946.88,-25151.613,14988.901,14977.68,14878.886,14874.862
3.648,09-20-2026 18:33:49:915,-132682.995,-28568.39,16855.898,-24398.449,16894.879,16883.658,16784.864,16780.84
3.652,09-20-2026 18:33:49:919,-132580.713,-28441.835,17080.488,-22850.278,17147.141,17107.891,17037.125,17033.102
3.656,09-20-2026 18:33:49:923,-132669.047,-28541.747,15031.101,-22724.75,15072.988,15061.768,14962.973,14958.95
3.66,09-20-2026 18:33:49:927,-132785.277,-28681.624,13739.707,-24042.788,13783.65,13772.43,13673.635,13669.612
3.664,09-20-2026 18:33:49:931,-132752.732,-28634.999,14890.732,-25067.928,14932.843,14921.622,14822.828,14818.804
3.668,09-20-2026 18:33:49:935,-132599.31,-28435.174,16799.75,-24314.764,16838.821,16827.6,16728.806,16724.782
3.672,09-20-2026 18:33:49:939,-132501.678,-28315.279,17052.414,-22745.672,17091.083,17079.862,16981.067,16977.044
3.676,09-20-2026 18:33:49:943,-132590.012,-28415.192,14974.954,-22641.065,15016.93,15005.71,14906.915,14902.892
3.68,09-20-2026 18:33:49:947,-132710.89,-28555.069,13683.559,-23959.103,13727.592,13716.372,13617.577,13613.553
3.684,09-20-2026 18:33:49:951,-132678.346,-28501.782,14834.585,-24984.244,14904.814,14893.593,14794.798,14790.775
3.688,09-20-2026 18:33:49:955,-132524.923,-28308.618,16771.676,-24231.079,16810.792,16799.571,16700.776,16696.753
3.692,09-20-2026 18:33:49:959,-132427.291,-28188.724,16996.266,-22703.829,17035.024,17023.804,16925.009,16920.986
3.696,09-20-2026 18:33:49:963,-132515.625,-28288.636,14918.806,-22599.223,14960.872,14949.651,14850.857,14846.833
3.7,09-20-2026 18:33:49:967,-132636.503,-28428.513,13655.485,-23917.261,13699.563,13688.342,13589.548,13585.524
3.704,09-20-2026 18:33:49:971,-132602.618,-28377.909,14804.589,-24921.301,14848.756,14837.759,14738.651,14734.628
3.708,09-20-2026 18:33:49:975,-132451.431,-28190.825,16710.298,-24177.435,16754.465,16743.468,16644.361,16640.337
3.712,09-20-2026 18:33:49:979,-132351.966,-28064.09,16928.094,-22633.913,16972.261,16961.264,16862.156,16858.133
3.716,09-20-2026 18:33:49:983,-132443.474,-28172.72,14886.262,-22559.526,14930.429,14919.432,14820.324,14816.301
3.72,09-20-2026 18:33:49:987,-132562.832,-28311.524,13579.489,-23879.889,13623.656,13612.659,13513.552,13509.528
3.724,09-20-2026 18:33:49:991,-132534.982,-28263.244,14777.364,-24902.704,14821.531,14810.534,14711.426,14707.403
3.728,09-20-2026 18:33:49:995,-132375.837,-28070.125,16683.074,-24158.838,16727.241,16716.244,16617.136,16613.113
3.732,09-20-2026 18:33:49:999,-132280.351,-27949.426,16928.094,-22633.913,16945.036,16934.039,16834.932,16830.908
3.736,09-20-2026 18:33:50:003,-132367.88,-28052.02,14831.813,-22559.526,14875.98,14864.983,14765.875,14761.852
3.74,09-20-2026 18:33:50:007,-132491.217,-28196.86,13579.489,-23898.485,13623.656,13612.659,13513.552,13509.528
3.744,09-20-2026 18:33:50:011,-132459.388,-28142.545,14750.14,-24921.301,14794.307,14783.31,14684.202,14680.179
3.748,09-20-2026 18:33:50:015,-132312.179,-27955.461,16655.849,-24177.435,16700.016,16689.019,16589.912,16585.888
3.752,09-20-2026 18:33:50:019,-132216.693,-27834.761,16846.42,-22652.51,16890.587,16879.59,16780.483,16776.459
3.756,09-20-2026 18:33:50:023,-132308.201,-27943.391,14804.589,-22578.123,14848.756,14837.759,14738.651,14734.628
3.76,09-20-2026 18:33:50:027,-132431.538,-28082.195,13525.041,-23917.082,13569.208,13558.211,13459.103,13455.08
3.764,09-20-2026 18:33:50:031,-132399.709,-28033.916,14722.915,-24921.301,14767.082,14756.085,14656.978,14652.954
3.768,09-20-2026 18:33:50:035,-132244.543,-27840.796,16628.625,-24177.435,16672.792,16661.795,16562.687,16558.664
3.772,09-20-2026 18:33:50:039,-132153.035,-27720.097,16846.42,-22652.51,16890.587,16879.59,16780.483,16776.459
3.776,09-20-2026 18:33:50:043,-132248.522,-27828.727,14750.14,-22578.123,14794.307,14783.31,14684.202,14680.179
3.78,09-20-2026 18:33:50:047,-132371.859,-27973.566,13497.816,-23917.082,13541.983,13530.986,13431.878,13427.855
3.784,09-20-2026 18:33:50:051,-132344.008,-27925.286,14695.691,-24921.301,14739.858,14728.861,14629.753,14625.73
3.788,09-20-2026 18:33:50:055,-132192.821,-27732.167,16601.401,-24177.435,16645.568,16634.571,16535.463,16531.44
3.792,09-20-2026 18:33:50:059,-132101.313,-27611.468,16791.972,-22633.913,16836.139,16825.142,16726.034,16722.011
3.796,09-20-2026 18:33:50:063,-132196.8,-27726.132,14722.915,-22578.123,14767.082,14756.085,14656.978,14652.954
3.8,09-20-2026 18:33:50:067,-132324.115,-27864.936,13470.592,-23917.082,13514.759,13503.762,13404.654,13400.631
3.804,09-20-2026 18:33:50:071,-132296.086,-27814.332,14687.421,-24906.549,14729.71,14718.445,14619.471,14615.359
3.808,09-20-2026 18:33:50:075,-132149.638,-27624.342,16579.094,-24146.59,16618.209,16606.944,16507.97,16503.858
3.812,09-20-2026 18:33:50:079,-132055.492,-27506.995,16765.596,-22607.672,16804.399,16793.134,16694.16,16690.048
3.816,09-20-2026 18:33:50:083,-132153.124,-27618.754,14687.421,-22550.675,14729.71,14718.445,14619.471,14615.359
3.82,09-20-2026 18:33:50:087,-132275.165,-27758.453,13435.187,-23880.604,13479.577,13468.312,13369.338,13365.226
3.824,09-20-2026 18:33:50:091,-132250.757,-27708.161,14660.777,-24887.55,14703.112,14691.846,14592.873,14588.76
3.828,09-20-2026 18:33:50:095,-132100.821,-27518.171,16579.094,-24127.591,16618.209,16606.944,16507.97,16503.858
3.832,09-20-2026 18:33:50:099,-132010.163,-27400.825,16738.953,-22588.673,16777.801,16766.535,16694.16,16690.048
3.836,09-20-2026 18:33:50:103,-132107.795,-27518.171,14687.421,-22531.676,14729.71,14718.445,14619.471,14615.359
3.84,09-20-2026 18:33:50:107,-132233.323,-27657.87,13408.543,-23880.604,13452.979,13441.713,13342.74,13338.627
3.844,09-20-2026 18:33:50:111,-132201.941,-27607.578,14660.777,-24887.55,14703.112,14691.846,14592.873,14588.76
3.848,09-20-2026 18:33:50:115,-132052.005,-27417.589,16552.45,-24108.592,16591.611,16580.345,16481.372,16477.259
3.852,09-20-2026 18:33:50:119,-131957.86,-27300.242,16712.31,-22569.674,16751.202,16739.937,16640.963,16636.85
3.856,09-20-2026 18:33:50:123,-132052.005,-27412.001,14660.777,-22531.676,14703.112,14691.846,14592.873,14588.76
3.86,09-20-2026 18:33:50:127,-132174.046,-27557.287,13408.543,-23861.605,13452.979,13441.713,13342.74,13338.627
3.864,09-20-2026 18:33:50:131,-132146.151,-27506.995,14660.777,-24868.551,14703.112,14691.846,14592.873,14588.76
3.868,09-20-2026 18:33:50:135,-131996.215,-27317.006,16552.45,-24070.594,16591.611,16580.345,16481.372,16477.259
3.872,09-20-2026 18:33:50:139,-131905.557,-27205.247,16712.31,-22550.675,16751.202,16739.937,16640.963,16636.85
3.876,09-20-2026 18:33:50:143,-131999.702,-27317.006,14634.134,-22512.677,14676.513,14665.248,14566.274,14562.162
3.88,09-20-2026 18:33:50:147,-132125.229,-27462.292,13381.9,-23861.605,13426.38,13441.713,13316.141,13312.028
3.884,09-20-2026 18:33:50:151,-132097.335,-27412.001,14634.134,-24849.552,14676.513,14665.248,14566.274,14562.162
3.888,09-20-2026 18:33:50:155,-131947.399,-27222.011,16525.807,-24070.594,16565.012,16553.747,16454.773,16450.66
3.892,09-20-2026 18:33:50:159,-131853.253,-27104.664,16685.667,-22531.676,16724.603,16713.338,16614.365,16610.252
3.896,09-20-2026 18:33:50:163,-131947.399,-27222.011,14607.491,-22493.678,14649.914,14638.649,14539.676,14535.563
3.9,09-20-2026 18:33:50:167,-132062.466,-27367.297,13381.9,-23842.606,13426.38,13415.115,13316.141,13312.028
3.904,09-20-2026 18:33:50:171,-132026.569,-27313.474,14632.882,-24832.073,14675.664,14663.996,14567.571,14561.178
3.908,09-20-2026 18:33:50:175,-131876.365,-27123.216,16527.729,-24035.993,16567.337,16555.669,16462.417,16452.851
3.912,09-20-2026 18:33:50:179,-131783.382,-27008.06,16687.857,-22481.742,16727.196,16715.529,16622.545,16612.711
3.916,09-20-2026 18:33:50:183,-131879.941,-27128.223,14606.194,-22443.834,14649.02,14637.353,14540.883,14534.535
3.92,09-20-2026 18:33:50:187,-132008.687,-27273.42,13351.859,-23827.496,13396.786,13385.119,13286.547,13282.301
3.924,09-20-2026 18:33:50:191,-131976.501,-27228.359,14606.194,-24832.073,14649.02,14637.353,14540.883,14534.535
3.928,09-20-2026 18:33:50:195,-131826.297,-27038.101,16527.729,-24035.993,16567.337,16555.669,16462.417,16452.851
3.932,09-20-2026 18:33:50:199,-131733.314,-26922.944,16687.857,-22481.742,16727.196,16715.529,16622.545,16612.711
3.936,09-20-2026 18:33:50:203,-131829.874,-27043.107,14606.194,-22443.834,14649.02,14637.353,14514.195,14534.535
3.94,09-20-2026 18:33:50:207,-131955.043,-27188.304,13325.171,-23827.496,13370.143,13358.475,13259.859,13255.657
3.944,09-20-2026 18:33:50:211,-131919.281,-27143.243,14606.194,-24832.073,14649.02,14637.353,14540.883,14534.535
3.948,09-20-2026 18:33:50:215,-131761.924,-26952.985,16501.041,-24035.993,16540.693,16529.026,16435.729,16426.208
3.952,09-20-2026 18:33:50:219,-131668.941,-26837.829,16661.169,-22481.742,16727.196,16715.529,16595.857,16612.711
3.956,09-20-2026 18:33:50:223,-131765.501,-26952.985,14579.506,-22443.834,14622.377,14610.71,14514.195,14507.891
3.96,09-20-2026 18:33:50:227,-131887.094,-27103.189,13325.171,-23827.496,13370.143,13358.475,13259.859,13255.657
3.964,09-20-2026 18:33:50:231,-131851.331,-27058.128,14579.506,-24813.119,14622.377,14610.71,14514.195,14507.891
3.968,09-20-2026 18:33:50:235,-131701.127,-26867.87,16501.041,-23998.085,16540.693,16529.026,16435.729,16426.208
3.972,09-20-2026 18:33:50:239,-131608.144,-26752.714,16634.481,-22443.834,16673.91,16662.242,16569.169,16559.424
3.976,09-20-2026 18:33:50:243,-131708.28,-26872.877,14552.818,-22424.879,14595.734,14584.066,14487.507,14481.248
3.98,09-20-2026 18:33:50:247,-131837.026,-27023.08,13298.483,-23808.542,13343.5,13331.832,13233.171,13229.014
3.984,09-20-2026 18:33:50:251,-131808.416,-26983.026,14579.506,-24813.119,14622.377,14610.71,14514.195,14507.891
3.988,09-20-2026 18:33:50:255,-131661.788,-26787.761,16474.353,-23998.085,16514.05,16502.382,16409.041,16399.564
3.992,09-20-2026 18:33:50:259,-131575.958,-26677.612,16634.481,-22443.834,16673.91,16662.242,16569.169,16559.424
3.996,09-20-2026 18:33:50:263,-131676.094,-26797.775,14526.131,-22424.879,14569.091,14557.423,14460.819,14454.605
4,09-20-2026 18:33:50:267,-131804.84,-26947.978,13298.483,-23808.542,13343.5,13331.832,13233.171,13229.014
4.004,09-20-2026 18:33:50:271,-131774.352,-26900.459,14559.703,-24814.638,14602.395,14591.263,14494.078,14490.144
4.008,09-20-2026 18:33:50:275,-131628.261,-26713.509,16491.609,-23991.915,16530.993,16519.861,16425.984,16422.05
4.012,09-20-2026 18:33:50:279,-131539.927,-26604.074,16596.036,-22442.135,16635.241,16624.11,16530.411,16526.478
4.016,09-20-2026 18:33:50:283,-131641.851,-26722.628,14507.489,-22442.135,14550.27,14539.139,14441.864,14437.931
4.02,09-20-2026 18:33:50:287,-131767.557,-26873.1,13280.468,-23838.851,13325.35,13314.219,13214.843,13210.909
4.024,09-20-2026 18:33:50:291,-131736.98,-26827.502,14559.703,-24833.772,14602.395,14591.263,14494.078,14490.144
4.028,09-20-2026 18:33:50:295,-131590.889,-26640.552,16491.609,-24030.182,16530.993,16519.861,16425.984,16422.05
4.032,09-20-2026 18:33:50:299,-131502.555,-26526.559,16596.036,-22480.401,16635.241,16624.11,16530.411,16526.478
4.036,09-20-2026 18:33:50:303,-131604.479,-26649.672,14507.489,-22480.401,14550.27,14539.139,14441.864,14437.931
4.04,09-20-2026 18:33:50:307,-131730.185,-26800.144,13280.468,-23877.117,13325.35,13314.219,13214.843,13210.909
4.044,09-20-2026 18:33:50:311,-131696.21,-26754.546,14559.703,-24872.038,14602.395,14591.263,14494.078,14490.144
4.048,09-20-2026 18:33:50:315,-131543.324,-26563.037,16465.502,-24049.315,16530.993,16519.861,16399.877,16395.943
4.052,09-20-2026 18:33:50:319,-131454.99,-26453.602,16596.036,-22499.534,16635.241,16624.11,16530.411,16526.478
4.056,09-20-2026 18:33:50:323,-131556.914,-26576.716,14481.382,-22499.534,14524.208,14513.077,14415.758,14411.824
4.06,09-20-2026 18:33:50:327,-131679.223,-26731.748,13280.468,-23896.25,13325.35,13314.219,13214.843,13210.909
4.064,09-20-2026 18:33:50:331,-131641.851,-26681.59,14559.703,-24872.038,14602.395,14591.263,14494.078,14490.144
4.068,09-20-2026 18:33:50:335,-131492.362,-26494.64,16491.609,-24049.315,16530.993,16519.861,16425.984,16422.05
4.072,09-20-2026 18:33:50:339,-131404.028,-26389.766,16596.036,-22499.534,16635.241,16624.11,16530.411,16526.478
4.076,09-20-2026 18:33:50:343,-131502.555,-26512.879,14507.489,-22499.534,14550.27,14539.139,14441.864,14437.931
4.08,09-20-2026 18:33:50:347,-131624.863,-26663.351,13280.468,-23896.25,13325.35,13314.219,13214.843,13210.909
4.084,09-20-2026 18:33:50:351,-131590.889,-26617.754,14585.81,-24872.038,14654.519,14617.326,14520.185,14516.251
4.088,09-20-2026 18:33:50:355,-131434.605,-26430.804,16491.609,-24049.315,16530.993,16519.861,16425.984,16422.05
4.092,09-20-2026 18:33:50:359,-131346.271,-26321.37,16596.036,-22499.534,16635.241,16624.11,16530.411,16526.478
4.096,09-20-2026 18:33:50:363,-131448.195,-26449.043,14507.489,-22499.534,14550.27,14539.139,14441.864,14437.931
4.1,09-20-2026 18:33:50:367,-131567.106,-26599.515,13306.575,-23915.383,13351.412,13340.281,13240.95,13237.016
4.104,09-20-2026 18:33:50:371,-131527.767,-26550.743,14617.504,-24876.329,14660.062,14648.573,14552.059,14548.035
4.108,09-20-2026 18:33:50:375,-131373.809,-26363.614,16520.04,-24049.762,16585.352,16547.846,16454.594,16450.571
4.112,09-20-2026 18:33:50:379,-131283.686,-26257.846,16598.227,-22492.739,16637.387,16625.898,16532.781,16528.757
4.116,09-20-2026 18:33:50:383,-131385.074,-26388.022,14513.256,-22511.962,14555.992,14544.504,14447.81,14443.787
4.12,09-20-2026 18:33:50:387,-131505.237,-26538.539,13288.336,-23915.204,13333.173,13321.684,13222.89,13218.866
4.124,09-20-2026 18:33:50:391,-131467.686,-26493.791,14617.504,-24876.329,14660.062,14648.573,14552.059,14548.035
4.128,09-20-2026 18:33:50:395,-131309.972,-26302.594,16520.04,-24030.539,16559.335,16547.846,16454.594,16450.571
4.132,09-20-2026 18:33:50:399,-131223.605,-26200.894,16598.227,-22492.739,16637.387,16625.898,16532.781,16528.757
4.136,09-20-2026 18:33:50:403,-131324.992,-26327.002,14487.194,-22492.739,14529.975,14518.486,14421.748,14417.725
4.14,09-20-2026 18:33:50:407,-131448.91,-26477.519,13314.398,-23895.982,13359.191,13347.702,13248.952,13244.929
4.144,09-20-2026 18:33:50:411,-131407.604,-26432.771,14617.504,-24837.884,14660.062,14648.573,14552.059,14548.035
4.148,09-20-2026 18:33:50:415,-131253.646,-26245.642,16546.102,-23992.094,16585.352,16573.863,16480.656,16476.633
4.152,09-20-2026 18:33:50:419,-131163.523,-26143.941,16598.227,-22454.294,16637.387,16625.898,16532.781,16502.695
4.156,09-20-2026 18:33:50:423,-131268.666,-26270.05,14487.194,-22473.517,14529.975,14518.486,14421.748,14417.725
4.16,09-20-2026 18:33:50:427,-131388.829,-26424.635,13288.336,-23876.759,13333.173,13321.684,13222.89,13218.866
4.164,09-20-2026 18:33:50:431,-131351.278,-26379.886,14617.504,-24818.662,14660.062,14648.573,14552.059,14548.035
4.168,09-20-2026 18:33:50:435,-131197.319,-26192.758,16520.04,-23972.872,16559.335,16547.846,16454.594,16450.571
4.172,09-20-2026 18:33:50:439,-131110.952,-26091.057,16572.164,-22435.072,16611.369,16599.881,16506.719,16502.695
4.176,09-20-2026 18:33:50:443,-131212.34,-26217.166,14461.132,-22454.294,14503.958,14492.469,14395.686,14391.662
4.18,09-20-2026 18:33:50:447,-131332.503,-26371.75,13288.336,-23876.759,13333.173,13321.684,13222.89,13218.866
4.184,09-20-2026 18:33:50:451,-131291.197,-26322.934,14617.504,-24818.662,14660.062,14648.573,14552.059,14548.035
4.188,09-20-2026 18:33:50:455,-131137.238,-26135.805,16520.04,-23972.872,16559.335,16547.846,16454.594,16450.571
4.192,09-20-2026 18:33:50:459,-131050.871,-26034.105,16572.164,-22435.072,16611.369,16599.881,16506.719,16502.695
4.196,09-20-2026 18:33:50:463,-131156.013,-26164.282,14461.132,-22435.072,14503.958,14492.469,14395.686,14391.662
4.2,09-20-2026 18:33:50:467,-131276.176,-26318.866,13288.336,-23857.537,13333.173,13321.684,13222.89,13218.866
4.204,09-20-2026 18:33:50:471,-131234.334,-26268.307,14621.707,-24791.303,14666.634,14629.127,14556.127,14552.193
