PseudoTimeSec,PseudoTimestamp,UF-FP1,UF-FP2,UF-O1,UF-O2,UF-C3,UF-CZ,UF-FZ,UF-C4
0.004,09-20-2026 21:56:37:616,-255782.366,-114755.912,65376.886,54828.293,61600.245,35648.082,43913.936,231806.276
0.008,09-20-2026 21:56:37:620,-279542.271,-212048.854,86046.795,57909.704,48633.104,47942.57,53392.864,121848.926
0.012,09-20-2026 21:56:37:624,-279922.429,-253589.66,89460.175,58264.203,59583.135,51107.487,60633.711,99645.999
0.016,09-20-2026 21:56:37:628,-277831.558,-226260.182,77323.714,56464.44,66931.181,43925.559,54972.685,174713.036
0.02,09-20-2026 21:56:37:632,-256162.525,-114755.912,65376.886,54828.293,61600.245,35648.082,43913.936,231806.276
0.024,09-20-2026 21:56:37:636,-267947.438,-116942.271,72014.013,55919.058,50650.215,38813,44177.239,213832.478
0.028,09-20-2026 21:56:37:640,-279542.271,-213142.033,86046.795,57882.435,48633.104,47942.57,53392.864,122906.208
0.032,09-20-2026 21:56:37:644,-279922.429,-253589.66,89460.175,58264.203,59583.135,51107.487,60633.711,99645.999
0.036,09-20-2026 21:56:37:648,-277831.558,-226260.182,77323.714,56437.171,66931.181,43925.559,54972.685,174713.036
0.04,09-20-2026 21:56:37:652,-255972.446,-114755.912,65376.886,54828.293,61600.245,35648.082,43913.936,231806.276
0.044,09-20-2026 21:56:37:656,-267567.279,-115849.092,71824.38,55891.789,50650.215,38813,44045.588,213832.478
0.048,09-20-2026 21:56:37:660,-279542.271,-212048.854,86046.795,57882.435,48633.104,47942.57,53392.864,120791.643
0.052,09-20-2026 21:56:37:664,-279922.429,-253589.66,89460.175,58264.203,59583.135,51107.487,60633.711,98588.717
0.056,09-20-2026 21:56:37:668,-277831.558,-226260.182,77323.714,56437.171,66931.181,43925.559,54972.685,173655.754
0.06,09-20-2026 21:56:37:672,-256162.525,-114755.912,65376.886,54828.293,61600.245,35648.082,43913.936,231806.276
0.064,09-20-2026 21:56:37:676,-267567.279,-115849.092,71824.38,55891.789,50650.215,38813,44045.588,212775.196
0.068,09-20-2026 21:56:37:680,-279542.271,-212048.854,86046.795,57882.435,48633.104,47820.842,53392.864,120791.643
0.072,09-20-2026 21:56:37:684,-279922.429,-253589.66,89460.175,58236.934,59583.135,51107.487,60633.711,97531.435
0.07600001,09-20-2026 21:56:37:688,-277831.558,-226260.182,77323.714,56437.171,66931.181,43925.559,54972.685,172598.472
0.08000001,09-20-2026 21:56:37:692,-255972.446,-114755.912,65376.886,54801.024,61456.166,35648.082,43913.936,231806.276
0.08400001,09-20-2026 21:56:37:696,-267567.279,-115849.092,71824.38,55891.789,50650.215,38813,44045.588,211717.914
0.08800001,09-20-2026 21:56:37:700,-279542.271,-212048.854,86046.795,57882.435,48633.104,47820.842,53392.864,119734.361
0.09200001,09-20-2026 21:56:37:704,-279922.429,-253589.66,89460.175,58264.203,59583.135,51107.487,60633.711,97531.435
0.096,09-20-2026 21:56:37:708,-277831.558,-226260.182,77323.714,56437.171,66787.102,43925.559,54841.033,172598.472
0.1,09-20-2026 21:56:37:712,-255782.366,-114755.912,65376.886,54801.024,61456.166,35648.082,43913.936,231806.276
0.104,09-20-2026 21:56:37:716,-267163.115,-115186.407,71803.817,55850.036,50548.962,38751.666,44025.739,212004.642
0.108,09-20-2026 21:56:37:720,-279577.452,-211866.106,86009.468,57858.027,48542.49,47881.236,53275.785,119935.572
0.112,09-20-2026 21:56:37:724,-279971.558,-253614.158,89418.824,58237.917,59578.083,51046.154,60543.678,96105.93
0.116,09-20-2026 21:56:37:728,-277803.976,-226148.334,77296.669,56419.871,66744.052,43864.226,54861.507,171927.517
0.12,09-20-2026 21:56:37:732,-255734.042,-114087.774,65363.922,54791.77,61441.235,35586.749,43761.452,231501.622
0.124,09-20-2026 21:56:37:736,-267360.168,-115186.407,71803.817,55877.171,50548.962,38751.666,44025.739,210921.477
0.128,09-20-2026 21:56:37:740,-279577.452,-211866.106,86009.468,57858.027,48542.49,47759.509,53275.785,117769.24
0.132,09-20-2026 21:56:37:744,-279971.558,-253614.158,89418.824,58237.917,59434.764,51046.154,60543.678,95022.764
0.136,09-20-2026 21:56:37:748,-277606.923,-226148.334,77296.669,56392.736,66744.052,43864.226,54729.364,170844.352
0.14,09-20-2026 21:56:37:752,-254945.83,-114087.774,65363.922,54791.77,61297.916,35586.749,43761.452,231501.622
0.144,09-20-2026 21:56:37:756,-266966.062,-115186.407,71803.817,55850.036,50405.642,38751.666,43893.596,209838.311
0.148,09-20-2026 21:56:37:760,-279577.452,-211866.106,86009.468,57830.892,48542.49,47759.509,53275.785,116686.075
0.152,09-20-2026 21:56:37:764,-279971.558,-253614.158,89418.824,58237.917,59434.764,51046.154,60543.678,93939.599
0.156,09-20-2026 21:56:37:768,-277803.976,-226148.334,77296.669,56419.871,66744.052,43864.226,54729.364,169761.186
0.16,09-20-2026 21:56:37:772,-255142.883,-114087.774,65363.922,54791.77,61297.916,35586.749,43761.452,231501.622
0.164,09-20-2026 21:56:37:776,-266571.956,-114087.774,71803.817,55850.036,50405.642,38751.666,43893.596,209838.311
0.168,09-20-2026 21:56:37:780,-279577.452,-211866.106,86009.468,57803.757,48542.49,47759.509,53275.785,116686.075
0.172,09-20-2026 21:56:37:784,-279971.558,-253614.158,89418.824,58210.782,59434.764,51046.154,60543.678,93939.599
0.176,09-20-2026 21:56:37:788,-277803.976,-226148.334,77296.669,56419.871,66744.052,43864.226,54729.364,169761.186
0.18,09-20-2026 21:56:37:792,-254945.83,-114087.774,65363.922,54791.77,61297.916,35586.749,43761.452,231501.622
0.184,09-20-2026 21:56:37:796,-266571.956,-114087.774,71803.817,55850.036,50405.642,38751.666,43893.596,210921.477
0.188,09-20-2026 21:56:37:800,-279577.452,-211866.106,86009.468,57830.892,48542.49,47759.509,53143.642,117769.24
0.192,09-20-2026 21:56:37:804,-279971.558,-253614.158,89418.824,58237.917,59434.764,51046.154,60543.678,95022.764
0.196,09-20-2026 21:56:37:808,-277803.976,-226148.334,77296.669,56419.871,66744.052,43864.226,54729.364,170844.352
0.2,09-20-2026 21:56:37:812,-254945.83,-114087.774,65363.922,54791.77,61297.916,35586.749,43761.452,231501.622
0.204,09-20-2026 21:56:37:816,-266551.526,-114264.8,71823.62,55873.326,50443.596,38772.23,43873.747,213933.911
0.208,09-20-2026 21:56:37:820,-279607.18,-211939.688,86066.152,57850.919,48593.81,47823.077,53255.937,122463.733
0.212,09-20-2026 21:56:37:824,-280002.806,-253643.573,89484.36,58230.184,59407.942,51125.413,60523.83,99333.343
0.216,09-20-2026 21:56:37:828,-277826.864,-226206.806,77330.733,56415.132,66664.793,43909.197,54841.659,173981.419
0.22,09-20-2026 21:56:37:832,-254880.563,-114264.8,65367.006,54816.804,61400.019,35592.203,43741.604,232858.775
0.224,09-20-2026 21:56:37:836,-266551.526,-114264.8,71823.62,55873.326,50585.887,38772.23,43873.747,216036.673
0.228,09-20-2026 21:56:37:840,-279607.18,-210842.217,85876.252,57823.829,48593.81,47823.077,53255.937,125617.877
0.232,09-20-2026 21:56:37:844,-280002.806,-253643.573,89484.36,58230.184,59550.233,51125.413,60523.83,100384.724
0.236,09-20-2026 21:56:37:848,-277826.864,-226206.806,77330.733,56442.223,66664.793,43909.197,54841.659,175032.8
0.24,09-20-2026 21:56:37:852,-254880.563,-114264.8,65367.006,54816.804,61400.019,35592.203,43741.604,232858.775
0.244,09-20-2026 21:56:37:856,-266551.526,-114264.8,71823.62,55873.326,50585.887,38772.23,43873.747,217088.055
0.248,09-20-2026 21:56:37:860,-279607.18,-210842.217,85876.252,57850.919,48593.81,47700.768,53255.937,126669.258
0.252,09-20-2026 21:56:37:864,-280002.806,-253643.573,89484.36,58257.274,59407.942,51125.413,60523.83,102487.487
0.256,09-20-2026 21:56:37:868,-277826.864,-226206.806,77330.733,56469.313,66664.793,43909.197,54841.659,176084.182
0.26,09-20-2026 21:56:37:872,-254880.563,-114264.8,65367.006,54843.894,61400.019,35592.203,43741.604,232858.775
0.264,09-20-2026 21:56:37:876,-266551.526,-114264.8,71823.62,55873.326,50585.887,38772.23,43873.747,218139.436
0.268,09-20-2026 21:56:37:880,-279607.18,-210842.217,85876.252,57850.919,48593.81,47823.077,53255.937,127720.639
0.272,09-20-2026 21:56:37:884,-280002.806,-253643.573,89484.36,58257.274,59550.233,51125.413,60523.83,102487.487
0.276,09-20-2026 21:56:37:888,-278024.677,-227304.277,77520.633,56496.403,66664.793,44031.506,54841.659,176084.182
0.28,09-20-2026 21:56:37:892,-255276.189,-115362.271,65367.006,54843.894,61542.31,35592.203,43741.604,232858.775
0.284,09-20-2026 21:56:37:896,-266551.526,-114264.8,71633.72,55873.326,50585.887,38649.921,43873.747,219190.817
0.288,09-20-2026 21:56:37:900,-279607.18,-210842.217,85876.252,57850.919,48593.81,47700.768,53123.793,129823.402
0.292,09-20-2026 21:56:37:904,-280002.806,-253643.573,89484.36,58257.274,59407.942,51125.413,60523.83,104590.25
0.296,09-20-2026 21:56:37:908,-277826.864,-227304.277,77520.633,56469.313,66664.793,44031.506,54841.659,177135.563
0.3,09-20-2026 21:56:37:912,-254880.563,-114264.8,65367.006,54843.894,61400.019,35592.203,43741.604,232858.775
0.304,09-20-2026 21:56:37:916,-266272.8,-114542.185,71657.547,55880.523,50512.752,38670.619,43731.903,220126.372
0.308,09-20-2026 21:56:37:920,-279623.765,-210958.312,85893.373,57838.536,48673.427,47704.926,53107.745,131319.807
0.312,09-20-2026 21:56:37:924,-280016.441,-253688.187,89499.782,58267.69,59426.404,51123.312,60502.775,106374.142
0.316,09-20-2026 21:56:37:928,-277856.726,-226297.242,77351.877,56470.609,66642.218,43920.284,54824.448,178217.656
0.32,09-20-2026 21:56:37:932,-255081.55,-114542.185,65393.783,54861.284,61407.216,35618.488,43731.903,233098.117
0.324,09-20-2026 21:56:37:936,-266861.813,-114542.185,71847.358,55907.346,50512.752,38792.704,43863.957,220126.372
0.328,09-20-2026 21:56:37:940,-279623.765,-210958.312,85893.373,57865.358,48673.427,47827.011,53239.799,131319.807
0.332,09-20-2026 21:56:37:944,-280016.441,-253688.187,89499.782,58267.69,59567.891,51123.312,60502.775,106374.142
0.336,09-20-2026 21:56:37:948,-277856.726,-227392.879,77541.688,56497.432,66642.218,44042.369,54824.448,178217.656
0.34,09-20-2026 21:56:37:952,-255474.225,-115637.823,65393.783,54861.284,61407.216,35618.488,43731.903,233098.117
0.344,09-20-2026 21:56:37:956,-266665.476,-114542.185,71657.547,55880.523,50512.752,38670.619,43863.957,221124.199
0.348,09-20-2026 21:56:37:960,-279623.765,-210958.312,85893.373,57838.536,48673.427,47704.926,53107.745,131319.807
0.352,09-20-2026 21:56:37:964,-280016.441,-253688.187,89499.782,58267.69,59567.891,51123.312,60502.775,106374.142
0.356,09-20-2026 21:56:37:968,-277856.726,-227392.879,77541.688,56497.432,66642.218,44042.369,54824.448,178217.656
0.36,09-20-2026 21:56:37:972,-255474.225,-115637.823,65393.783,54861.284,61407.216,35618.488,43731.903,233098.117
0.364,09-20-2026 21:56:37:976,-266861.813,-114542.185,71657.547,55907.346,50512.752,38670.619,43731.903,221124.199
0.368,09-20-2026 21:56:37:980,-279623.765,-210958.312,85893.373,57838.536,48673.427,47704.926,53107.745,133315.46
0.372,09-20-2026 21:56:37:984,-280016.441,-253688.187,89499.782,58267.69,59567.891,51123.312,60502.775,107371.969
0.376,09-20-2026 21:56:37:988,-277856.726,-227392.879,77351.877,56470.609,66642.218,43920.284,54824.448,179215.482
0.38,09-20-2026 21:56:37:992,-255474.225,-114542.185,65393.783,54861.284,61265.729,35618.488,43731.903,233098.117
0.384,09-20-2026 21:56:37:996,-266861.813,-114542.185,71657.547,55880.523,50512.752,38670.619,43731.903,222122.025
0.388,09-20-2026 21:56:38:000,-279623.765,-210958.312,85893.373,57838.536,48814.913,47704.926,53107.745,133315.46
0.392,09-20-2026 21:56:38:004,-280016.441,-253688.187,89499.782,58267.69,59567.891,51123.312,60502.775,108369.795
0.396,09-20-2026 21:56:38:008,-278053.064,-227392.879,77541.688,56497.432,66500.731,44042.369,54824.448,179215.482
0.4,09-20-2026 21:56:38:012,-255670.563,-115637.823,65393.783,54861.284,61265.729,35618.488,43731.903,233098.117
0.404,09-20-2026 21:56:38:016,-266894.715,-115610.733,71643.912,55885.62,50537.607,38684.522,43749.248,222409.916
0.408,09-20-2026 21:56:38:020,-279644.999,-211295.153,85879.738,57856.686,48875.174,47715.521,53090.176,134432.108
0.412,09-20-2026 21:56:38:024,-280025.605,-253700.749,89486.148,58261.699,59542.454,51132.655,60457.669,109016.297
0.416,09-20-2026 21:56:38:028,-277932.275,-227604.997,77528.054,56506.64,66469.26,44054.305,54800.487,179398.543
0.42,09-20-2026 21:56:38:032,-255857.155,-115610.733,65380.149,54859.585,61204.888,35633.509,43749.248,233162.759
0.424,09-20-2026 21:56:38:036,-266894.715,-115610.733,71643.912,55885.62,50676.143,38684.522,43749.248,222409.916
0.428,09-20-2026 21:56:38:040,-279644.999,-211295.153,85879.738,57856.686,48875.174,47715.521,53090.176,135409.64
0.432,09-20-2026 21:56:38:044,-280025.605,-253700.749,89486.148,58261.699,59542.454,51132.655,60457.669,109016.297
0.436,09-20-2026 21:56:38:048,-277932.275,-227604.997,77528.054,56506.64,66469.26,44054.305,54800.487,180376.074
0.44,09-20-2026 21:56:38:052,-255857.155,-116698.055,65380.149,54859.585,61204.888,35633.509,43749.248,233162.759
0.444,09-20-2026 21:56:38:056,-266894.715,-115610.733,71643.912,55885.62,50676.143,38684.522,43749.248,222409.916
0.448,09-20-2026 21:56:38:060,-279644.999,-211295.153,85879.738,57829.685,48875.174,47715.521,53090.176,135409.64
0.452,09-20-2026 21:56:38:064,-280025.605,-253700.749,89486.148,58261.699,59542.454,51132.655,60457.669,109016.297
0.456,09-20-2026 21:56:38:068,-278122.577,-227604.997,77528.054,56506.64,66469.26,44054.305,54800.487,180376.074
0.46,09-20-2026 21:56:38:072,-256047.458,-116698.055,65380.149,54859.585,61343.424,35633.509,43749.248,233162.759
0.464,09-20-2026 21:56:38:076,-266894.715,-115610.733,71643.912,55885.62,50676.143,38684.522,43749.248,222409.916
0.468,09-20-2026 21:56:38:080,-279644.999,-211295.153,85879.738,57856.686,48875.174,47715.521,53090.176,135409.64
0.472,09-20-2026 21:56:38:084,-280025.605,-253700.749,89486.148,58288.7,59542.454,51132.655,60457.669,109016.297
0.476,09-20-2026 21:56:38:088,-278122.577,-228692.32,77528.054,56506.64,66469.26,44054.305,54800.487,180376.074
0.48,09-20-2026 21:56:38:092,-256237.761,-116698.055,65380.149,54859.585,61343.424,35633.509,43749.248,233162.759
0.484,09-20-2026 21:56:38:096,-266894.715,-115610.733,71643.912,55885.62,50676.143,38684.522,43749.248,223387.447
0.488,09-20-2026 21:56:38:100,-279644.999,-211295.153,85689.927,57856.686,48875.174,47715.521,53090.176,136387.171
0.492,09-20-2026 21:56:38:104,-280025.605,-253700.749,89486.148,58288.7,59542.454,51132.655,60457.669,109993.829
0.496,09-20-2026 21:56:38:108,-278122.577,-228692.32,77528.054,56506.64,66469.26,44054.305,54932.05,180376.074
0.5,09-20-2026 21:56:38:112,-256047.458,-116698.055,65380.149,54859.585,61343.424,35633.509,43749.248,233162.759
0.504,09-20-2026 21:56:38:116,-267124.402,-115984.767,71652.093,55871.672,50710.386,38731.863,43718.85,223581.996
0.508,09-20-2026 21:56:38:120,-279656.041,-211433.153,85704.724,57812.519,48916.972,47752.937,53075.648,136783.02
0.512,09-20-2026 21:56:38:124,-280030.12,-253734.142,89502.733,58270.774,59539.504,51166.317,60455.657,110743.327
0.516,09-20-2026 21:56:38:128,-278159.726,-228787.405,77539.006,56491.665,66437.252,44095.745,54788.864,181146.941
0.52,09-20-2026 21:56:38:132,-256276.117,-117069.407,65385.379,54847.336,61332.919,35684.202,43718.85,233226.327
0.524,09-20-2026 21:56:38:136,-267124.402,-115984.767,71652.093,55871.672,50710.386,38731.863,43718.85,223581.996
0.528,09-20-2026 21:56:38:140,-279656.041,-211433.153,85704.724,57839.475,48916.972,47752.937,53075.648,136783.02
0.532,09-20-2026 21:56:38:144,-280030.12,-253734.142,89502.733,58270.774,59539.504,51166.317,60455.657,110743.327
0.536,09-20-2026 21:56:38:148,-278159.726,-228787.405,77539.006,56491.665,66437.252,44095.745,54920.65,181146.941
0.54,09-20-2026 21:56:38:152,-256463.156,-117069.407,65385.379,54847.336,61332.919,35684.202,43718.85,233226.327
0.544,09-20-2026 21:56:38:156,-267311.441,-115984.767,71652.093,55871.672,50710.386,38731.863,43718.85,224546.429
0.548,09-20-2026 21:56:38:160,-279656.041,-211433.153,85704.724,57812.519,48916.972,47631.031,53075.648,137747.453
0.552,09-20-2026 21:56:38:164,-280030.12,-253734.142,89502.733,58243.818,59539.504,51166.317,60455.657,110743.327
0.5560001,09-20-2026 21:56:38:168,-278159.726,-228787.405,77539.006,56464.709,66437.252,44095.745,54788.864,181146.941
0.56,09-20-2026 21:56:38:172,-256463.156,-117069.407,65385.379,54847.336,61194.964,35684.202,43718.85,233226.327
0.564,09-20-2026 21:56:38:176,-267311.441,-115984.767,71652.093,55844.716,50710.386,38731.863,43718.85,224546.429
0.568,09-20-2026 21:56:38:180,-279656.041,-211433.153,85704.724,57812.519,48916.972,47752.937,53075.648,137747.453
0.572,09-20-2026 21:56:38:184,-280030.12,-253734.142,89502.733,58270.774,59539.504,51166.317,60455.657,111707.76
0.576,09-20-2026 21:56:38:188,-278159.726,-228787.405,77539.006,56491.665,66437.252,44095.745,54788.864,182111.374
0.58,09-20-2026 21:56:38:192,-256463.156,-117069.407,65385.379,54847.336,61194.964,35684.202,43718.85,233226.327
0.5840001,09-20-2026 21:56:38:196,-267311.441,-115984.767,71652.093,55871.672,50710.386,38731.863,43718.85,224546.429
0.588,09-20-2026 21:56:38:200,-279656.041,-211433.153,85704.724,57812.519,48916.972,47631.031,53075.648,137747.453
0.592,09-20-2026 21:56:38:204,-280030.12,-253734.142,89502.733,58270.774,59539.504,51166.317,60455.657,111707.76
0.596,09-20-2026 21:56:38:208,-278159.726,-228787.405,77539.006,56491.665,66437.252,44095.745,54788.864,181146.941
0.6,09-20-2026 21:56:38:212,-256837.235,-118154.048,65385.379,54847.336,61194.964,35684.202,43718.85,233226.327
0.604,09-20-2026 21:56:38:216,-267657.312,-116934.671,71687.454,55848.695,50651.109,38614.471,43699.851,224608.657
0.608,09-20-2026 21:56:38:220,-279662.613,-211726.095,85707.004,57786.323,49012.279,47602.465,53018.561,139056.908
0.612,09-20-2026 21:56:38:224,-280026.41,-253735.93,89496.072,58243.818,59528.105,51124.787,60368.53,112440.808
0.6160001,09-20-2026 21:56:38:228,-278207.425,-228960.899,77560.509,56494.571,66356.563,44080.143,54724.804,181832.782
0.62,09-20-2026 21:56:38:232,-256925.301,-118011.846,65435.492,54852.969,61166.935,35699.446,43699.851,233163.832
0.624,09-20-2026 21:56:38:236,-267475.413,-116934.671,71687.454,55848.695,50787.678,38735.931,43699.851,224608.657
0.628,09-20-2026 21:56:38:240,-279662.613,-211726.095,85707.004,57813.234,49012.279,47602.465,53018.561,140007.483
0.632,09-20-2026 21:56:38:244,-280026.41,-253735.93,89496.072,58243.818,59528.105,51124.787,60368.53,112440.808
0.636,09-20-2026 21:56:38:248,-278207.425,-228960.899,77560.509,56494.571,66356.563,44080.143,54724.804,181832.782
0.64,09-20-2026 21:56:38:252,-257107.199,-118011.846,65435.492,54852.969,61166.935,35699.446,43699.851,233163.832
0.6440001,09-20-2026 21:56:38:256,-267657.312,-116934.671,71498,55848.695,50787.678,38614.471,43699.851,224608.657
0.648,09-20-2026 21:56:38:260,-279662.613,-211726.095,85707.004,57786.323,49012.279,47602.465,52887.312,139056.908
0.652,09-20-2026 21:56:38:264,-280026.41,-253735.93,89496.072,58243.818,59528.105,51124.787,60368.53,112440.808
0.656,09-20-2026 21:56:38:268,-278207.425,-228960.899,77560.509,56467.659,66356.563,44201.603,54724.804,181832.782
0.66,09-20-2026 21:56:38:272,-257289.098,-119089.022,65435.492,54852.969,61303.504,35699.446,43699.851,233163.832
0.664,09-20-2026 21:56:38:276,-267839.21,-116934.671,71498,55848.695,50787.678,38614.471,43699.851,224608.657
0.668,09-20-2026 21:56:38:280,-279662.613,-211726.095,85517.551,57759.411,49012.279,47602.465,52887.312,140007.483
0.6720001,09-20-2026 21:56:38:284,-280026.41,-253735.93,89496.072,58216.907,59528.105,51124.787,60368.53,112440.808
0.6760001,09-20-2026 21:56:38:288,-278207.425,-228960.899,77560.509,56467.659,66356.563,44080.143,54724.804,181832.782
0.68,09-20-2026 21:56:38:292,-257289.098,-119089.022,65435.492,54826.058,61166.935,35699.446,43699.851,233163.832
0.684,09-20-2026 21:56:38:296,-268021.109,-116934.671,71687.454,55848.695,50787.678,38614.471,43699.851,225559.232
0.688,09-20-2026 21:56:38:300,-279662.613,-211726.095,85707.004,57786.323,49012.279,47602.465,52887.312,140958.058
0.692,09-20-2026 21:56:38:304,-280026.41,-253735.93,89496.072,58216.907,59528.105,51124.787,60368.53,113391.383
0.696,09-20-2026 21:56:38:308,-278207.425,-230038.074,77749.962,56467.659,66356.563,44201.603,54856.054,181832.782
0.7,09-20-2026 21:56:38:312,-257470.996,-119089.022,65435.492,54826.058,61303.504,35699.446,43699.851,233163.832
0.7040001,09-20-2026 21:56:38:316,-267820.524,-117519.616,71501.442,55823.348,50846.866,38632.71,43642.586,225451.452
0.708,09-20-2026 21:56:38:320,-279669.81,-211905.847,85504.453,57757.757,49079.603,47604.164,52842.564,140990.021
0.712,09-20-2026 21:56:38:324,-280018.318,-253736.109,89478.28,58214.493,59547.238,51120.004,60333.974,113774.671
0.716,09-20-2026 21:56:38:328,-278275.776,-230139.551,77746.028,56495.018,66344.403,44209.56,54813.988,182282.276
0.72,09-20-2026 21:56:38:332,-257888.035,-119664.758,65446.087,54829.276,61314.501,35723.05,43642.586,232959.134
0.724,09-20-2026 21:56:38:336,-267994.779,-117519.616,71501.442,55823.348,50846.866,38632.71,43642.586,226389.912
0.728,09-20-2026 21:56:38:340,-279669.81,-211905.847,85504.453,57757.757,49079.603,47604.164,52842.564,141928.481
0.7320001,09-20-2026 21:56:38:344,-280018.318,-253736.109,89478.28,58214.493,59411.294,51120.004,60333.974,113774.671
0.7360001,09-20-2026 21:56:38:348,-278275.776,-230139.551,77746.028,56468.151,66344.403,44209.56,54813.988,182282.276
0.74,09-20-2026 21:56:38:352,-257888.035,-119664.758,65446.087,54829.276,61314.501,35723.05,43642.586,232959.134
0.744,09-20-2026 21:56:38:356,-268169.033,-117519.616,71501.442,55796.481,50846.866,38632.71,43642.586,226389.912
0.748,09-20-2026 21:56:38:360,-279669.81,-211905.847,85504.453,57757.757,49079.603,47604.164,52842.564,142866.941
0.752,09-20-2026 21:56:38:364,-280018.318,-253736.109,89478.28,58214.493,59547.238,51120.004,60333.974,114713.131
0.756,09-20-2026 21:56:38:368,-278275.776,-230139.551,77746.028,56495.018,66344.403,44209.56,54813.988,183220.736
0.7600001,09-20-2026 21:56:38:372,-258236.543,-120737.329,65446.087,54802.409,61314.501,35723.05,43774.014,232959.134
0.7640001,09-20-2026 21:56:38:376,-268169.033,-117519.616,71501.442,55796.481,50846.866,38632.71,43642.586,226389.912
0.768,09-20-2026 21:56:38:380,-279669.81,-211905.847,85504.453,57757.757,49079.603,47604.164,52842.564,142866.941
0.772,09-20-2026 21:56:38:384,-280018.318,-253736.109,89478.28,58214.493,59411.294,51120.004,60333.974,114713.131
0.776,09-20-2026 21:56:38:388,-278275.776,-230139.551,77746.028,56468.151,66344.403,44209.56,54813.988,183220.736
0.78,09-20-2026 21:56:38:392,-258236.543,-120737.329,65446.087,54802.409,61450.444,35723.05,43774.014,232959.134
0.784,09-20-2026 21:56:38:396,-268343.287,-117519.616,71501.442,55769.614,50846.866,38632.71,43642.586,226389.912
0.788,09-20-2026 21:56:38:400,-279669.81,-211905.847,85504.453,57757.757,49079.603,47482.928,52842.564,143805.402
0.7920001,09-20-2026 21:56:38:404,-280018.318,-253736.109,89478.28,58214.493,59411.294,51120.004,60333.974,115651.591
0.7960001,09-20-2026 21:56:38:408,-278275.776,-230139.551,77746.028,56441.284,66344.403,44209.56,54813.988,184159.197
0.8,09-20-2026 21:56:38:412,-258236.543,-120737.329,65446.087,54802.409,61450.444,35723.05,43774.014,232959.134
0.804,09-20-2026 21:56:38:416,-268226.834,-118546.947,71477.302,55811.233,50868.547,38659.801,43688.63,226474.625
0.808,09-20-2026 21:56:38:420,-279638.294,-212217.207,85483.621,57737.819,49094.31,47516.545,52869.833,144036.921
0.812,09-20-2026 21:56:38:424,-279978.935,-253730.163,89458.387,58199.115,59466.771,51156.303,60345.955,116557.687
0.816,09-20-2026 21:56:38:428,-278275.732,-230312.598,77723.363,56462.473,66427.239,44240.763,54837.233,183423.824
0.8200001,09-20-2026 21:56:38:432,-258348.257,-121740.251,65420.516,54780.102,61513.968,35747.994,43819.79,232886.446
0.8240001,09-20-2026 21:56:38:436,-268226.834,-118546.947,71477.302,55784.098,50868.547,38659.801,43688.63,227390.6
0.8280001,09-20-2026 21:56:38:440,-279638.294,-212217.207,85483.621,57710.684,49094.31,47516.545,52869.833,144952.896
0.832,09-20-2026 21:56:38:444,-279978.935,-253730.163,89458.387,58199.115,59466.771,51156.303,60345.955,116557.687
0.836,09-20-2026 21:56:38:448,-278275.732,-230312.598,77723.363,56435.338,66427.239,44240.763,54968.393,184339.799
0.84,09-20-2026 21:56:38:452,-258518.578,-121740.251,65420.516,54752.967,61513.968,35747.994,43819.79,232886.446
0.844,09-20-2026 21:56:38:456,-268397.155,-118546.947,71477.302,55729.828,51005.027,38659.801,43688.63,227390.6
0.848,09-20-2026 21:56:38:460,-279638.294,-212217.207,85483.621,57710.684,49094.31,47516.545,52869.833,144952.896
0.8520001,09-20-2026 21:56:38:464,-279978.935,-253730.163,89458.387,58199.115,59466.771,51156.303,60345.955,116557.687
0.8560001,09-20-2026 21:56:38:468,-278275.732,-230312.598,77723.363,56435.338,66427.239,44240.763,54968.393,184339.799
0.86,09-20-2026 21:56:38:472,-258518.578,-121740.251,65420.516,54752.967,61513.968,35747.994,43819.79,232886.446
0.864,09-20-2026 21:56:38:476,-268397.155,-118546.947,71477.302,55756.963,51005.027,38659.801,43688.63,227390.6
0.868,09-20-2026 21:56:38:480,-279638.294,-212217.207,85483.621,57683.549,49094.31,47516.545,52869.833,144952.896
0.872,09-20-2026 21:56:38:484,-279978.935,-253730.163,89458.387,58144.845,59466.771,51156.303,60345.955,116557.687
0.876,09-20-2026 21:56:38:488,-278275.732,-231377.033,77723.363,56408.203,66427.239,44240.763,54968.393,183423.824
0.8800001,09-20-2026 21:56:38:492,-258688.898,-121740.251,65420.516,54752.967,61650.447,35747.994,43819.79,232886.446
0.8840001,09-20-2026 21:56:38:496,-268397.155,-118546.947,71288.028,55729.828,51005.027,38538.475,43688.63,227390.6
0.8880001,09-20-2026 21:56:38:500,-279638.294,-212217.207,85483.621,57710.684,49094.31,47516.545,52869.833,144952.896
0.892,09-20-2026 21:56:38:504,-279978.935,-253730.163,89458.387,58199.115,59466.771,51156.303,60345.955,116557.687
0.896,09-20-2026 21:56:38:508,-278275.732,-231377.033,77723.363,56435.338,66427.239,44240.763,54968.393,184339.799
0.9,09-20-2026 21:56:38:512,-258859.218,-122804.686,65420.516,54752.967,61650.447,35747.994,43819.79,232886.446
0.904,09-20-2026 21:56:38:516,-268484.952,-119179.501,71345.561,55728.666,51016.784,38564.046,43596.362,227212.054
0.9080001,09-20-2026 21:56:38:520,-279607.717,-212401.296,85318.799,57669.512,49096.68,47512.343,52805.728,146442.282
0.9120001,09-20-2026 21:56:38:524,-279934.857,-253715.501,89473.005,58154.724,59520.103,51140.031,60304.783,117401.465
0.9160001,09-20-2026 21:56:38:528,-278299.156,-230410.052,77765.698,56429.527,66514.768,44247.424,54910.726,184558.354
0.92,09-20-2026 21:56:38:532,-259161.459,-122357.517,65491.908,54758.242,61714.508,35782.818,43859.487,232657.207
0.924,09-20-2026 21:56:38:536,-268812.092,-119179.501,71534.389,55755.622,51153.934,38684.969,43727.925,227212.054
0.928,09-20-2026 21:56:38:540,-279607.717,-212401.296,85318.799,57696.469,49233.83,47512.343,52805.728,145534.756
0.932,09-20-2026 21:56:38:544,-279934.857,-253715.501,89473.005,58181.68,59520.103,51140.031,60304.783,117401.465
0.936,09-20-2026 21:56:38:548,-278462.726,-231469.391,77765.698,56456.483,66514.768,44247.424,54910.726,183650.828
0.9400001,09-20-2026 21:56:38:552,-259325.029,-123416.856,65491.908,54758.242,61714.508,35782.818,43859.487,232657.207
0.9440001,09-20-2026 21:56:38:556,-268648.522,-119179.501,71345.561,55728.666,51016.784,38564.046,43596.362,227212.054
0.9480001,09-20-2026 21:56:38:560,-279607.717,-212401.296,85318.799,57669.512,49096.68,47512.343,52674.166,145534.756
0.952,09-20-2026 21:56:38:564,-279934.857,-253715.501,89473.005,58181.68,59520.103,51140.031,60304.783,117401.465
0.956,09-20-2026 21:56:38:568,-278462.726,-231469.391,77765.698,56429.527,66514.768,44247.424,54910.726,183650.828
0.96,09-20-2026 21:56:38:572,-259652.169,-123416.856,65491.908,54758.242,61577.357,35782.818,43859.487,232657.207
0.964,09-20-2026 21:56:38:576,-268975.662,-120238.84,71345.561,55728.666,51016.784,38564.046,43596.362,227212.054
0.9680001,09-20-2026 21:56:38:580,-279607.717,-212401.296,85318.799,57642.556,49096.68,47391.42,52674.166,146442.282
0.9720001,09-20-2026 21:56:38:584,-279934.857,-253715.501,89473.005,58154.724,59382.952,51140.031,60304.783,117401.465
0.9760001,09-20-2026 21:56:38:588,-278462.726,-232528.729,77954.525,56429.527,66377.618,44368.347,54910.726,183650.828
0.98,09-20-2026 21:56:38:592,-259979.309,-124476.194,65491.908,54758.242,61714.508,35782.818,43859.487,232657.207
0.984,09-20-2026 21:56:38:596,-268812.092,-119179.501,71345.561,55701.709,51016.784,38443.123,43596.362,228119.579
0.988,09-20-2026 21:56:38:600,-279607.717,-212401.296,85318.799,57669.512,49096.68,47391.42,52674.166,146442.282
0.992,09-20-2026 21:56:38:604,-279934.857,-253715.501,89473.005,58154.724,59382.952,51140.031,60304.783,117401.465
0.9960001,09-20-2026 21:56:38:608,-278626.296,-232528.729,77954.525,56429.527,66377.618,44368.347,55042.288,183650.828
1,09-20-2026 21:56:38:612,-260306.449,-126594.871,65491.908,54758.242,61851.658,35782.818,43991.049,232657.207
1.004,09-20-2026 21:56:38:616,-268824.654,-119756.132,71183.511,55686.51,51021.567,38466.682,43540.841,227608.35
1.008,09-20-2026 21:56:38:620,-279577.363,-211502.443,85305.343,57631.47,48976.382,47368.666,52593.968,146248.894
1.012,09-20-2026 21:56:38:624,-279889.036,-253684.655,89447.747,58137.692,59338.651,51097.876,60203.843,117321.088
1.016,09-20-2026 21:56:38:628,-278486.509,-232593.549,77961.991,56432.522,66292.279,44361.239,54955.653,183312.647
1.02,09-20-2026 21:56:38:632,-260097.818,-126083.464,65534.778,54753.996,61792.873,35820.146,43934.455,232128.32
1.024,09-20-2026 21:56:38:636,-268668.818,-119756.132,71183.511,55686.51,51021.567,38466.682,43540.841,227608.35
1.028,09-20-2026 21:56:38:640,-279577.363,-211502.443,85117.052,57631.47,48976.382,47368.666,52593.968,147152.888
1.032,09-20-2026 21:56:38:644,-279889.036,-253684.655,89447.747,58137.692,59202.306,51097.876,60203.843,117321.088
1.036,09-20-2026 21:56:38:648,-278486.509,-232593.549,77961.991,56432.522,66292.279,44361.239,54955.653,183312.647
1.04,09-20-2026 21:56:38:652,-260097.818,-126083.464,65534.778,54753.996,61792.873,35820.146,43934.455,232128.32
1.044,09-20-2026 21:56:38:656,-268824.654,-119756.132,71183.511,55686.51,51021.567,38466.682,43540.841,227608.35
1.048,09-20-2026 21:56:38:660,-279577.363,-211502.443,85305.343,57631.47,48976.382,47368.666,52593.968,146248.894
1.052,09-20-2026 21:56:38:664,-279889.036,-253684.655,89447.747,58137.692,59202.306,51097.876,60203.843,117321.088
1.056,09-20-2026 21:56:38:668,-278486.509,-232593.549,77961.991,56432.522,66292.279,44361.239,54955.653,183312.647
1.06,09-20-2026 21:56:38:672,-260097.818,-126083.464,65534.778,54753.996,61792.873,35820.146,43934.455,232128.32
1.064,09-20-2026 21:56:38:676,-268668.818,-119756.132,71183.511,55713.154,51021.567,38466.682,43540.841,227608.35
1.068,09-20-2026 21:56:38:680,-279577.363,-211502.443,85305.343,57631.47,48976.382,47368.666,52593.968,147152.888
1.072,09-20-2026 21:56:38:684,-279889.036,-253684.655,89447.747,58137.692,59202.306,51097.876,60203.843,117321.088
1.076,09-20-2026 21:56:38:688,-278486.509,-232593.549,77961.991,56459.165,66292.279,44361.239,54955.653,184216.64
1.08,09-20-2026 21:56:38:692,-260097.818,-126083.464,65534.778,54753.996,61792.873,35820.146,43934.455,232128.32
1.084,09-20-2026 21:56:38:696,-268668.818,-119756.132,71183.511,55686.51,51021.567,38466.682,43540.841,228512.344
1.088,09-20-2026 21:56:38:700,-279577.363,-211502.443,85117.052,57631.47,48976.382,47248.369,52593.968,148056.882
1.092,09-20-2026 21:56:38:704,-279889.036,-253684.655,89447.747,58137.692,59202.306,51097.876,60203.843,118225.082
1.096,09-20-2026 21:56:38:708,-278486.509,-232593.549,77961.991,56432.522,66292.279,44361.239,54955.653,184216.64
1.1,09-20-2026 21:56:38:712,-260097.818,-126083.464,65534.778,54780.639,61792.873,35820.146,44065.66,232128.32
1.104,09-20-2026 21:56:38:716,-268735.024,-119634.538,71224.862,55696.3,51041.058,38481.657,43565.83,228616.146
1.108,09-20-2026 21:56:38:720,-279537.175,-211435.298,85118.706,57615.153,48855.951,47357.177,52609.703,148511.964
1.112,09-20-2026 21:56:38:724,-279845.808,-253642.545,89437.063,58114.58,59098.638,51075.301,60211.8,119140.431
1.116,09-20-2026 21:56:38:728,-278611.276,-233594.103,77984.029,56432.299,66200.234,44358.691,55100.045,184113.822
1.12,09-20-2026 21:56:38:732,-260401.936,-127020.806,65592.222,54776.303,61830.021,35842.989,44090.112,232176.332
1.124,09-20-2026 21:56:38:736,-268580.707,-119634.538,71037.107,55670.015,51041.058,38361.718,43565.83,228616.146
1.128,09-20-2026 21:56:38:740,-279537.175,-211435.298,85118.706,57588.867,48855.951,47237.238,52478.633,149402.01
1.132,09-20-2026 21:56:38:744,-279845.808,-253642.545,89437.063,58114.58,59098.638,51075.301,60211.8,119140.431
1.136,09-20-2026 21:56:38:748,-278456.96,-232538.922,77984.029,56458.584,66200.234,44358.691,55100.045,185003.869
1.14,09-20-2026 21:56:38:752,-260247.619,-125965.625,65592.222,54802.588,61693.452,35842.989,44090.112,232176.332
1.144,09-20-2026 21:56:38:756,-268735.024,-119634.538,71224.862,55722.586,51041.058,38481.657,43565.83,228616.146
1.148,09-20-2026 21:56:38:760,-279537.175,-211435.298,85118.706,57615.153,48855.951,47237.238,52478.633,149402.01
1.152,09-20-2026 21:56:38:764,-279845.808,-253642.545,89437.063,58114.58,59098.638,51075.301,60211.8,120030.477
1.156,09-20-2026 21:56:38:768,-278456.96,-232538.922,77984.029,56432.299,66200.234,44358.691,55100.045,185003.869
1.16,09-20-2026 21:56:38:772,-260401.936,-125965.625,65592.222,54828.874,61693.452,35842.989,44221.183,232176.332
1.164,09-20-2026 21:56:38:776,-268889.34,-119634.538,71224.862,55748.872,50904.489,38481.657,43696.9,228616.146
1.168,09-20-2026 21:56:38:780,-279537.175,-211435.298,85118.706,57615.153,48855.951,47237.238,52478.633,150292.057
1.172,09-20-2026 21:56:38:784,-279845.808,-253642.545,89437.063,58114.58,59098.638,51075.301,60211.8,120030.477
1.176,09-20-2026 21:56:38:788,-278611.276,-232538.922,77984.029,56484.87,66200.234,44358.691,55231.116,185003.869
1.18,09-20-2026 21:56:38:792,-260710.569,-127020.806,65592.222,54855.16,61693.452,35842.989,44352.254,232176.332
1.184,09-20-2026 21:56:38:796,-268889.34,-119634.538,71224.862,55748.872,50904.489,38481.657,43696.9,228616.146
1.188,09-20-2026 21:56:38:800,-279537.175,-211435.298,85118.706,57615.153,48855.951,47237.238,52478.633,150292.057
1.192,09-20-2026 21:56:38:804,-279845.808,-253642.545,89437.063,58114.58,58962.069,51075.301,60211.8,120920.524
1.196,09-20-2026 21:56:38:808,-278456.96,-232538.922,77984.029,56484.87,66200.234,44358.691,55362.186,185003.869
1.2,09-20-2026 21:56:38:812,-260710.569,-127020.806,65592.222,54855.16,61693.452,35842.989,44483.324,232176.332
1.204,09-20-2026 21:56:38:816,-269071.998,-120459.496,71265.542,55752.403,51024.607,38416.524,43794.175,228653.16
1.208,09-20-2026 21:56:38:820,-279549.2,-211692.433,85013.832,57609.252,48860.958,47159.722,52420.16,151265.207
1.212,09-20-2026 21:56:38:824,-279844.332,-253638.611,89286.949,58092.541,59003.062,50940.564,60144.923,121701.27
1.216,09-20-2026 21:56:38:828,-278516.236,-232665.522,77953.899,56464.619,66034.921,44324.09,55252.574,186046.31
1.22,09-20-2026 21:56:38:832,-261103.423,-126751.423,65691.911,54862.133,61572.395,35935.347,44437.905,232131.27
1.224,09-20-2026 21:56:38:836,-269367.131,-120459.496,71265.542,55777.84,51024.607,38534.676,43794.175,228653.16
1.228,09-20-2026 21:56:38:840,-279549.2,-211692.433,85013.832,57609.252,48860.958,47159.722,52548.907,151265.207
1.232,09-20-2026 21:56:38:844,-279844.332,-253638.611,89286.949,58092.541,59003.062,50940.564,60144.923,121701.27
1.236,09-20-2026 21:56:38:848,-278516.236,-232665.522,77953.899,56464.619,66034.921,44324.09,55252.574,186046.31
1.24,09-20-2026 21:56:38:852,-261546.121,-127800.078,65691.911,54862.133,61572.395,35935.347,44566.652,232131.27
1.244,09-20-2026 21:56:38:856,-269514.697,-121508.151,71265.542,55752.403,51024.607,38534.676,43794.175,228653.16
1.248,09-20-2026 21:56:38:860,-279549.2,-211692.433,85013.832,57609.252,48860.958,47159.722,52420.16,152134.735
1.252,09-20-2026 21:56:38:864,-279844.332,-253638.611,89286.949,58092.541,59003.062,50940.564,60144.923,121701.27
1.256,09-20-2026 21:56:38:868,-278516.236,-232665.522,77953.899,56464.619,66034.921,44324.09,55252.574,186046.31
1.26,09-20-2026 21:56:38:872,-261841.254,-127800.078,65691.911,54862.133,61572.395,35935.347,44437.905,232131.27
1.264,09-20-2026 21:56:38:876,-269809.83,-121508.151,71265.542,55752.403,51024.607,38534.676,43794.175,228653.16
1.268,09-20-2026 21:56:38:880,-279549.2,-212741.087,84828.044,57583.816,48860.958,47041.571,52420.16,153004.262
1.272,09-20-2026 21:56:38:884,-279844.332,-253638.611,89286.949,58041.669,58867.834,50822.413,60016.177,123440.325
1.276,09-20-2026 21:56:38:888,-278663.803,-233714.176,77953.899,56413.747,65899.693,44324.09,55252.574,186915.837
1.28,09-20-2026 21:56:38:892,-262283.953,-128848.732,65691.911,54862.133,61572.395,35935.347,44566.652,232131.27
1.284,09-20-2026 21:56:38:896,-270104.962,-122556.805,71265.542,55752.403,51024.607,38534.676,43794.175,228653.16
1.288,09-20-2026 21:56:38:900,-279549.2,-212741.087,84828.044,57558.379,48996.186,47041.571,52420.16,153873.79
1.292,09-20-2026 21:56:38:904,-279844.332,-253638.611,89286.949,58041.669,58867.834,50940.564,60016.177,123440.325
1.296,09-20-2026 21:56:38:908,-278663.803,-233714.176,77953.899,56439.183,65899.693,44442.242,55252.574,186915.837
1.3,09-20-2026 21:56:38:912,-262874.217,-130946.041,65691.911,54862.133,61572.395,36053.498,44566.652,232131.27
1.304,09-20-2026 21:56:38:916,-270081.18,-123280.242,71174.749,55726.073,51134.443,38492.788,43819.299,229064.879
1.308,09-20-2026 21:56:38:920,-279505.748,-212576.355,84684.859,57553.104,49018.001,47001.114,52400.357,154227.216
1.312,09-20-2026 21:56:38:924,-279763.955,-253632.039,89066.516,58016.68,58938.823,50795.367,59956.811,124796.674
1.316,09-20-2026 21:56:38:928,-278731.126,-234130.589,78112.373,56407.801,65817.26,44471.612,55218.018,187021.248
1.32,09-20-2026 21:56:38:932,-263367.789,-131491.379,65880.247,54798.923,61584.376,36193.241,44715.827,231587.497
1.324,09-20-2026 21:56:38:936,-270468.491,-123280.242,71174.749,55698.804,51134.443,38492.788,43819.299,229064.879
1.328,09-20-2026 21:56:38:940,-279505.748,-212576.355,84684.859,57498.566,49018.001,47001.114,52272.281,155908.961
1.332,09-20-2026 21:56:38:944,-279763.955,-253632.039,89066.516,57962.141,58806.546,50795.367,59956.811,125637.546
1.336,09-20-2026 21:56:38:948,-278602.022,-234130.589,77929.804,56325.994,65817.26,44356.635,55089.942,187862.121
1.34,09-20-2026 21:56:38:952,-263367.789,-131491.379,65880.247,54717.115,61584.376,36193.241,44587.752,231587.497
1.344,09-20-2026 21:56:38:956,-270597.594,-124306.634,71174.749,55616.996,51134.443,38607.766,43819.299,229064.879
1.348,09-20-2026 21:56:38:960,-279376.644,-212576.355,84684.859,57444.028,49018.001,47001.114,52272.281,155908.961
1.352,09-20-2026 21:56:38:964,-279763.955,-253632.039,89066.516,57934.872,58938.823,50795.367,59828.736,125637.546
1.356,09-20-2026 21:56:38:968,-278731.126,-234130.589,78112.373,56271.455,65684.982,44471.612,55089.942,187862.121
1.36,09-20-2026 21:56:38:972,-263884.203,-132517.771,65880.247,54662.577,61452.098,36193.241,44459.676,231587.497
1.364,09-20-2026 21:56:38:976,-270597.594,-124306.634,71174.749,55535.189,51134.443,38492.788,43691.223,229064.879
1.368,09-20-2026 21:56:38:980,-279376.644,-212576.355,84684.859,57362.221,49018.001,46886.137,52272.281,155908.961
1.372,09-20-2026 21:56:38:984,-279763.955,-253632.039,89066.516,57853.065,58806.546,50680.39,59828.736,126478.419
1.376,09-20-2026 21:56:38:988,-278602.022,-234130.589,77929.804,56189.648,65684.982,44356.635,54961.867,187862.121
1.38,09-20-2026 21:56:38:992,-263884.203,-132517.771,65880.247,54608.039,61452.098,36193.241,44459.676,231587.497
1.384,09-20-2026 21:56:38:996,-270726.698,-124306.634,71174.749,55480.651,51134.443,38492.788,43691.223,229064.879
1.388,09-20-2026 21:56:39:000,-279376.644,-212576.355,84502.29,57307.682,49150.279,46886.137,52144.206,156749.833
1.392,09-20-2026 21:56:39:004,-279634.852,-253632.039,88883.947,57771.257,58806.546,50680.39,59700.66,127319.292
1.396,09-20-2026 21:56:39:008,-278602.022,-234130.589,77929.804,56135.11,65552.704,44356.635,54833.791,188702.993
1.4,09-20-2026 21:56:39:012,-263755.1,-132517.771,65880.247,54553.5,61319.82,36193.241,44331.601,231587.497
1.404,09-20-2026 21:56:39:016,-270688.566,-125019.476,71104.341,55432.863,51160.774,38538.207,43579.554,229215.619
1.408,09-20-2026 21:56:39:020,-279344.726,-212777.878,84558.214,57232.178,49220.866,46846.708,52097.714,157036.293
1.412,09-20-2026 21:56:39:024,-279611.07,-253595.74,88921.632,57720.564,58791.078,50602.606,59598.781,127508.387
1.416,09-20-2026 21:56:39:028,-278545.696,-234207.256,78013.087,56101.18,65645.419,44342.776,54894.722,188204.639
1.42,09-20-2026 21:56:39:032,-263630.466,-133183.048,65831.878,54507.5,61377.622,36148.09,44342.374,231676.278
1.424,09-20-2026 21:56:39:036,-270555.394,-123999.029,71104.341,55381.454,51160.774,38424.392,43579.554,229215.619
1.428,09-20-2026 21:56:39:040,-279344.726,-212777.878,84558.214,57206.474,49220.866,46846.708,52097.714,157856.513
1.432,09-20-2026 21:56:39:044,-279611.07,-253595.74,88921.632,57694.859,58920.405,50602.606,59598.781,127508.387
1.436,09-20-2026 21:56:39:048,-278545.696,-234207.256,78013.087,56075.475,65516.092,44342.776,54894.722,188204.639
1.44,09-20-2026 21:56:39:052,-263630.466,-133183.048,65831.878,54481.796,61248.295,36148.09,44342.374,231676.278
1.444,09-20-2026 21:56:39:056,-270422.223,-123999.029,71104.341,55355.749,51160.774,38424.392,43579.554,230035.839
1.448,09-20-2026 21:56:39:060,-279344.726,-212777.878,84558.214,57206.474,49220.866,46846.708,52097.714,157856.513
1.452,09-20-2026 21:56:39:064,-279611.07,-253595.74,88921.632,57694.859,58920.405,50602.606,59598.781,127508.387
1.456,09-20-2026 21:56:39:068,-278545.696,-234207.256,78013.087,56075.475,65516.092,44342.776,54894.722,189024.858
1.46,09-20-2026 21:56:39:072,-263230.951,-132162.602,65831.878,54456.091,61248.295,36148.09,44342.374,231676.278
1.464,09-20-2026 21:56:39:076,-270289.051,-123999.029,71104.341,55330.045,51160.774,38424.392,43579.554,230035.839
1.468,09-20-2026 21:56:39:080,-279211.554,-212777.878,84558.214,57180.769,49220.866,46732.893,52097.714,158676.733
1.472,09-20-2026 21:56:39:084,-279611.07,-253595.74,88921.632,57694.859,58920.405,50602.606,59725.918,127508.387
1.476,09-20-2026 21:56:39:088,-278545.696,-234207.256,78013.087,56049.771,65645.419,44342.776,55021.859,189024.858
1.48,09-20-2026 21:56:39:092,-263097.78,-132162.602,65831.878,54456.091,61377.622,36148.09,44469.511,231676.278
1.484,09-20-2026 21:56:39:096,-270155.879,-123999.029,71104.341,55355.749,51160.774,38424.392,43706.691,230035.839
1.488,09-20-2026 21:56:39:100,-279211.554,-211757.432,84558.214,57180.769,49220.866,46846.708,52097.714,157856.513
1.492,09-20-2026 21:56:39:104,-279611.07,-253595.74,88921.632,57694.859,58920.405,50602.606,59725.918,127508.387
1.496,09-20-2026 21:56:39:108,-278412.524,-234207.256,78013.087,56075.475,65645.419,44342.776,55148.996,189024.858
1.5,09-20-2026 21:56:39:112,-262698.264,-131142.155,65831.878,54507.5,61506.949,36148.09,44723.784,231676.278
1.504,09-20-2026 21:56:39:116,-269837.546,-122889.936,71110.421,55388.919,51216.966,38423.364,43833.738,230148.268
1.508,09-20-2026 21:56:39:120,-279272.217,-211351.882,84600.682,57191.721,49273.705,46771.025,52165.753,158397.738
1.512,09-20-2026 21:56:39:124,-279541.779,-253525.6,88975.902,57724.945,58860.458,50658.977,59866.555,128229.902
1.516,09-20-2026 21:56:39:128,-278463.531,-233981.682,78037.852,56150.667,65726.646,44369.643,55321.819,188565.575
1.52,09-20-2026 21:56:39:132,-262694.152,-132147.581,65823.697,54601.78,61581.023,36136.333,44843.679,231778.962
1.524,09-20-2026 21:56:39:136,-269702.765,-122889.936,71110.421,55465.094,51346.517,38423.364,43833.738,230148.268
1.528,09-20-2026 21:56:39:140,-279272.217,-211351.882,84418.381,57217.113,49273.705,46771.025,52165.753,159213.085
1.532,09-20-2026 21:56:39:144,-279541.779,-253525.6,88975.902,57750.336,58860.458,50658.977,59866.555,128229.902
1.536,09-20-2026 21:56:39:148,-278463.531,-233981.682,78037.852,56201.45,65726.646,44369.643,55321.819,189380.922
1.54,09-20-2026 21:56:39:152,-262559.371,-131118.954,65823.697,54652.563,61451.472,36136.333,44843.679,231778.962
1.544,09-20-2026 21:56:39:156,-269567.984,-122889.936,71110.421,55515.877,51346.517,38423.364,43833.738,230148.268
1.548,09-20-2026 21:56:39:160,-279272.217,-211351.882,84600.682,57318.679,49273.705,46885.377,52165.753,158397.738
1.552,09-20-2026 21:56:39:164,-279541.779,-253525.6,88975.902,57801.119,58990.009,50658.977,59866.555,128229.902
1.556,09-20-2026 21:56:39:168,-278463.531,-233981.682,78037.852,56201.45,65726.646,44369.643,55448.062,188565.575
1.56,09-20-2026 21:56:39:172,-262424.59,-131118.954,65823.697,54652.563,61581.023,36136.333,44969.922,231778.962
1.564,09-20-2026 21:56:39:176,-269567.984,-122889.936,71110.421,55541.269,51346.517,38423.364,43833.738,230148.268
1.568,09-20-2026 21:56:39:180,-279272.217,-211351.882,84418.381,57344.071,49273.705,46771.025,52165.753,159213.085
1.572,09-20-2026 21:56:39:184,-279541.779,-253525.6,88975.902,57826.511,58990.009,50658.977,59866.555,128229.902
1.576,09-20-2026 21:56:39:188,-278463.531,-233981.682,78037.852,56252.233,65726.646,44369.643,55448.062,189380.922
1.58,09-20-2026 21:56:39:192,-262424.59,-131118.954,65823.697,54677.955,61581.023,36136.333,44969.922,231778.962
1.584,09-20-2026 21:56:39:196,-269567.984,-122889.936,71110.421,55566.66,51346.517,38423.364,43959.98,230148.268
1.588,09-20-2026 21:56:39:200,-279272.217,-211351.882,84418.381,57344.071,49403.256,46771.025,52165.753,160028.432
1.592,09-20-2026 21:56:39:204,-279541.779,-253525.6,88975.902,57826.511,58990.009,50658.977,59866.555,128229.902
1.596,09-20-2026 21:56:39:208,-278463.531,-235010.309,78037.852,56277.625,65726.646,44483.995,55448.062,189380.922
1.6,09-20-2026 21:56:39:212,-262828.933,-132147.581,65823.697,54703.346,61581.023,36136.333,44969.922,231778.962
1.604,09-20-2026 21:56:39:216,-269950.511,-123857.006,71167.865,55555.037,51365.918,38488.586,43930.029,229742.316
1.608,09-20-2026 21:56:39:220,-279252.413,-211669.232,84534.566,57346.127,49446.797,46812.018,52146.888,159538.303
1.612,09-20-2026 21:56:39:224,-279510.8,-253533.2,89112.203,57854.048,58914.46,50742.528,59850.193,128874.481
1.616,09-20-2026 21:56:39:228,-278477.255,-235153.897,78125.874,56276.82,65695.353,44499.954,55484.987,188588.239
1.62,09-20-2026 21:56:39:232,-263490.857,-134067.73,65857.806,54699.591,61601.229,36176.522,44957.137,231356.201
1.624,09-20-2026 21:56:39:236,-270079.705,-123857.006,70984.759,55528.305,51365.918,38372.983,43801.641,229742.316
1.628,09-20-2026 21:56:39:240,-279252.413,-211669.232,84534.566,57346.127,49446.797,46812.018,52146.888,160345.246
1.632,09-20-2026 21:56:39:244,-279510.8,-253533.2,89112.203,57854.048,58914.46,50742.528,59850.193,128874.481
1.636,09-20-2026 21:56:39:248,-278477.255,-235153.897,78125.874,56276.82,65695.353,44499.954,55356.599,188588.239
1.64,09-20-2026 21:56:39:252,-263490.857,-134067.73,65857.806,54646.126,61601.229,36176.522,44828.748,231356.201
1.644,09-20-2026 21:56:39:256,-270079.705,-123857.006,71167.865,55528.305,51365.918,38372.983,43801.641,229742.316
1.648,09-20-2026 21:56:39:260,-279123.22,-211669.232,84534.566,57346.127,49446.797,46812.018,52146.888,160345.246
1.652,09-20-2026 21:56:39:264,-279510.8,-253533.2,89112.203,57854.048,59042.401,50742.528,59850.193,128874.481
1.656,09-20-2026 21:56:39:268,-278477.255,-235153.897,78125.874,56250.087,65695.353,44499.954,55228.21,189395.182
1.66,09-20-2026 21:56:39:272,-263361.664,-134067.73,65857.806,54619.393,61601.229,36176.522,44700.36,231356.201
1.664,09-20-2026 21:56:39:276,-270079.705,-124878.079,71167.865,55474.839,51365.918,38488.586,43673.252,229742.316
1.668,09-20-2026 21:56:39:280,-279123.22,-212690.304,84534.566,57319.395,49446.797,46812.018,52018.5,159538.303
1.672,09-20-2026 21:56:39:284,-279510.8,-253533.2,89112.203,57827.316,59042.401,50742.528,59850.193,128874.481
1.676,09-20-2026 21:56:39:288,-278477.255,-235153.897,78308.979,56169.889,65695.353,44499.954,55099.822,188588.239
1.68,09-20-2026 21:56:39:292,-263490.857,-135088.803,65857.806,54512.463,61601.229,36060.919,44571.971,231356.201
1.684,09-20-2026 21:56:39:296,-269950.511,-124878.079,70984.759,55367.909,51365.918,38372.983,43544.864,229742.316
1.688,09-20-2026 21:56:39:300,-279123.22,-212690.304,84534.566,57212.464,49446.797,46812.018,52018.5,160345.246
1.692,09-20-2026 21:56:39:304,-279510.8,-253533.2,89112.203,57747.118,59042.401,50742.528,59721.805,128874.481
1.696,09-20-2026 21:56:39:308,-278348.062,-235153.897,78125.874,56089.691,65695.353,44384.351,55099.822,188588.239
1.7,09-20-2026 21:56:39:312,-263103.278,-134067.73,65857.806,54458.997,61473.288,36060.919,44315.194,231356.201
1.704,09-20-2026 21:56:39:316,-269817.116,-123762.637,70963.391,55317.081,51371.059,38270.523,43452.641,229935.39
1.708,09-20-2026 21:56:39:320,-279137.972,-212305.318,84545.473,57175.852,49421.093,46767.762,51982.334,160565.232
1.712,09-20-2026 21:56:39:324,-279416.207,-253487.96,89196.871,57706.929,59040.926,50780.347,59736.602,129106.671
1.716,09-20-2026 21:56:39:328,-278442.386,-234955.771,78219.572,56087.143,65800.809,44407.418,55084.041,188797.273
1.72,09-20-2026 21:56:39:332,-263000.371,-134058.298,65753.825,54493.911,61640.881,36028.196,44357.305,231548.65
1.724,09-20-2026 21:56:39:336,-269677.999,-123762.637,70963.391,55343.635,51371.059,38270.523,43452.641,229935.39
1.728,09-20-2026 21:56:39:340,-279137.972,-212305.318,84545.473,57175.852,49421.093,46767.762,51982.334,160565.232
1.732,09-20-2026 21:56:39:344,-279416.207,-253487.96,89196.871,57706.929,59040.926,50780.347,59865.839,129106.671
1.736,09-20-2026 21:56:39:348,-278442.386,-234955.771,78219.572,56140.251,65930.807,44525.435,55213.279,189603.903
1.74,09-20-2026 21:56:39:352,-262722.136,-133028.732,65753.825,54547.018,61770.879,35910.179,44486.543,231548.65
1.744,09-20-2026 21:56:39:356,-269538.882,-122733.071,70963.391,55449.85,51371.059,38270.523,43452.641,230742.02
1.748,09-20-2026 21:56:39:360,-279137.972,-211275.752,84545.473,57255.513,49421.093,46767.762,51982.334,161371.861
1.752,09-20-2026 21:56:39:364,-279416.207,-253487.96,89382.927,57760.037,59040.926,50898.364,59865.839,129913.301
1.756,09-20-2026 21:56:39:368,-278303.269,-234955.771,78219.572,56219.912,65930.807,44407.418,55213.279,189603.903
1.76,09-20-2026 21:56:39:372,-262165.667,-131999.166,65753.825,54706.342,61770.879,35910.179,44486.543,231548.65
1.764,09-20-2026 21:56:39:376,-269260.647,-122733.071,70963.391,55556.066,51371.059,38270.523,43452.641,230742.02
1.768,09-20-2026 21:56:39:380,-279137.972,-211275.752,84731.529,57308.621,49421.093,46885.779,51982.334,160565.232
1.772,09-20-2026 21:56:39:384,-279416.207,-253487.96,89382.927,57839.699,59040.926,50898.364,59865.839,129106.671
1.776,09-20-2026 21:56:39:388,-278303.269,-234955.771,78219.572,56299.574,65930.807,44525.435,55213.279,189603.903
1.78,09-20-2026 21:56:39:392,-262026.55,-131999.166,65753.825,54759.449,61770.879,35910.179,44357.305,231548.65
1.784,09-20-2026 21:56:39:396,-268982.413,-122733.071,70963.391,55609.173,51371.059,38152.506,43452.641,230742.02
1.788,09-20-2026 21:56:39:400,-279137.972,-211275.752,84731.529,57388.283,49421.093,46885.779,51982.334,160565.232
1.792,09-20-2026 21:56:39:404,-279416.207,-253487.96,89382.927,57866.252,59040.926,50898.364,59865.839,129106.671
1.796,09-20-2026 21:56:39:408,-278303.269,-234955.771,78405.628,56379.236,65930.807,44525.435,55213.279,189603.903
1.8,09-20-2026 21:56:39:412,-261748.315,-131999.166,65753.825,54892.219,61770.879,35910.179,44357.305,231548.65
1.804,09-20-2026 21:56:39:416,-268799.397,-121729.88,71002.73,55718.339,51389.432,38175.617,43365.916,230797.542
1.808,09-20-2026 21:56:39:420,-279010.121,-211614.291,84708.82,57426.907,49290.872,46804.821,52019.528,161177.669
1.812,09-20-2026 21:56:39:424,-279447.723,-253420.994,89590.441,57939.477,58996.714,50999.573,59886.448,128415.376
1.816,09-20-2026 21:56:39:428,-278280.783,-234607.978,78325.162,56450.582,65948.196,44527.67,55297.411,189025.618
1.82,09-20-2026 21:56:39:432,-261360.155,-131136.388,65745.6,54986.096,61751.075,35778.616,44414.838,231616.599
1.824,09-20-2026 21:56:39:436,-268653.529,-121729.88,71002.73,55791.563,51389.432,38175.617,43365.916,230797.542
1.828,09-20-2026 21:56:39:440,-279010.121,-210569.124,84708.82,57500.131,49290.872,46924.671,52019.528,160358.612
1.832,09-20-2026 21:56:39:444,-279447.723,-253420.994,89590.441,57963.885,59127.874,50999.573,60017.563,128415.376
1.836,09-20-2026 21:56:39:448,-278280.783,-235653.145,78325.162,56499.399,65948.196,44527.67,55297.411,189025.618
1.84,09-20-2026 21:56:39:452,-261360.155,-131136.388,65745.6,55034.912,61751.075,35778.616,44414.838,231616.599
1.844,09-20-2026 21:56:39:456,-268507.662,-120684.713,71002.73,55840.38,51389.432,38175.617,43365.916,230797.542
1.848,09-20-2026 21:56:39:460,-279155.988,-210569.124,84708.82,57524.539,49290.872,46804.821,52019.528,160358.612
1.852,09-20-2026 21:56:39:464,-279447.723,-253420.994,89590.441,58012.701,58996.714,50999.573,60017.563,127596.319
1.856,09-20-2026 21:56:39:468,-278280.783,-235653.145,78512.916,56548.215,65948.196,44527.67,55297.411,189025.618
1.86,09-20-2026 21:56:39:472,-261214.287,-132181.556,65745.6,55083.728,61751.075,35778.616,44414.838,231616.599
1.864,09-20-2026 21:56:39:476,-268215.927,-120684.713,71002.73,55889.196,51258.272,38055.767,43365.916,230797.542
1.868,09-20-2026 21:56:39:480,-279155.988,-210569.124,84708.82,57573.355,49290.872,46804.821,52019.528,160358.612
1.872,09-20-2026 21:56:39:484,-279447.723,-253420.994,89590.441,58061.517,58996.714,50999.573,60017.563,127596.319
1.876,09-20-2026 21:56:39:488,-278280.783,-235653.145,78512.916,56597.031,65948.196,44527.67,55428.526,188206.561
1.88,09-20-2026 21:56:39:492,-260922.552,-131136.388,65745.6,55108.137,61751.075,35778.616,44545.954,231616.599
1.884,09-20-2026 21:56:39:496,-268070.059,-120684.713,71002.73,55913.604,51258.272,38055.767,43365.916,230797.542
1.888,09-20-2026 21:56:39:500,-279155.988,-210569.124,84708.82,57597.763,49290.872,46924.671,52019.528,160358.612
1.892,09-20-2026 21:56:39:504,-279447.723,-253420.994,89590.441,58085.925,58996.714,50999.573,60017.563,127596.319
1.896,09-20-2026 21:56:39:508,-278280.783,-235653.145,78512.916,56645.847,65948.196,44527.67,55428.526,188206.561
1.9,09-20-2026 21:56:39:512,-260922.552,-131136.388,65745.6,55132.545,61751.075,35778.616,44545.954,231616.599
1.904,09-20-2026 21:56:39:516,-268054.681,-120570.629,70964.822,55929.34,51274.142,38082.455,43460.419,230924.991
1.908,09-20-2026 21:56:39:520,-279135.559,-210528.086,84703.545,57615.6,49303.389,46854.353,52084.527,160597.552
1.912,09-20-2026 21:56:39:524,-279431.049,-253414.78,89596.789,58118.961,59025.772,51060.057,60055.293,127887.115
1.916,09-20-2026 21:56:39:528,-278396.833,-235632.492,78492.889,56634.045,65989.1,44571.256,55481.902,188401.424
1.92,09-20-2026 21:56:39:532,-260962.92,-132076.816,65695.174,55098.794,61916.21,35799.359,44636.434,231742.752
1.924,09-20-2026 21:56:39:536,-268054.681,-120570.629,70964.822,55904.172,51405.525,38082.455,43460.419,230924.991
1.928,09-20-2026 21:56:39:540,-279135.559,-210528.086,84703.545,57615.6,49303.389,46854.353,51953.858,161415.313
1.932,09-20-2026 21:56:39:544,-279431.049,-253414.78,89596.789,58118.961,59025.772,51060.057,60055.293,127887.115
1.936,09-20-2026 21:56:39:548,-278249.088,-235632.492,78492.889,56608.877,65989.1,44571.256,55481.902,189219.184
1.94,09-20-2026 21:56:39:552,-260667.43,-131030.799,65695.174,55048.457,61784.826,35799.359,44505.765,231742.752
1.944,09-20-2026 21:56:39:556,-268054.681,-120570.629,70964.822,55853.835,51274.142,38082.455,43460.419,230924.991
1.948,09-20-2026 21:56:39:560,-278987.813,-210528.086,84703.545,57565.264,49303.389,46854.353,52084.527,161415.313
1.952,09-20-2026 21:56:39:564,-279431.049,-253414.78,89596.789,58093.793,59025.772,51060.057,60055.293,127887.115
1.956,09-20-2026 21:56:39:568,-278249.088,-234586.475,78304.688,56558.541,65989.1,44571.256,55481.902,189219.184
1.96,09-20-2026 21:56:39:572,-260667.43,-131030.799,65695.174,54998.121,61653.443,35799.359,44505.765,231742.752
1.964,09-20-2026 21:56:39:576,-268202.426,-120570.629,70964.822,55828.667,51274.142,38202.618,43460.419,230924.991
1.968,09-20-2026 21:56:39:580,-278987.813,-210528.086,84703.545,57565.264,49303.389,46854.353,52084.527,161415.313
1.972,09-20-2026 21:56:39:584,-279431.049,-253414.78,89596.789,58093.793,59025.772,51060.057,60055.293,127887.115
1.976,09-20-2026 21:56:39:588,-278249.088,-235632.492,78492.889,56533.373,65989.1,44571.256,55481.902,188401.424
1.98,09-20-2026 21:56:39:592,-261110.665,-132076.816,65695.174,54947.785,61784.826,35799.359,44505.765,231742.752
1.984,09-20-2026 21:56:39:596,-268202.426,-120570.629,70964.822,55778.331,51274.142,38082.455,43460.419,230924.991
1.988,09-20-2026 21:56:39:600,-278987.813,-210528.086,84515.343,57514.928,49303.389,46854.353,51953.858,161415.313
1.992,09-20-2026 21:56:39:604,-279431.049,-253414.78,89596.789,58043.457,59025.772,51060.057,60055.293,127887.115
1.996,09-20-2026 21:56:39:608,-278249.088,-235632.492,78492.889,56508.205,65857.716,44571.256,55481.902,188401.424
2,09-20-2026 21:56:39:612,-261406.155,-132076.816,65695.174,54922.617,61653.443,35799.359,44505.765,231742.752
2.004,09-20-2026 21:56:39:616,-268410.789,-121251.508,70862.317,55751.956,51259.881,38126.667,43378.209,230725.122
2.008,09-20-2026 21:56:39:620,-279095.817,-210716.869,84620.62,57503.975,49298.516,46791.276,51935.575,161819.164
2.012,09-20-2026 21:56:39:624,-279384.602,-253368.959,89520.838,58037.199,58974.586,51003.239,59966.333,127366.185
2.016,09-20-2026 21:56:39:628,-278229.463,-235683.946,78401.113,56488.312,65904.744,44504.782,55358.521,188889.362
2.02,09-20-2026 21:56:39:632,-261046.783,-131654.457,65585.159,54888.642,61720.498,35719.831,44431.423,231545.431
2.024,09-20-2026 21:56:39:636,-268266.397,-121251.508,70862.317,55701.173,51259.881,38006.325,43246.558,230725.122
2.028,09-20-2026 21:56:39:640,-278951.425,-210716.869,84620.62,57478.584,49298.516,46791.276,51935.575,160998.855
2.032,09-20-2026 21:56:39:644,-279384.602,-253368.959,89520.838,58037.199,58974.586,51003.239,59966.333,127366.185
2.036,09-20-2026 21:56:39:648,-278229.463,-235683.946,78401.113,56462.92,65904.744,44504.782,55358.521,188889.362
2.04,09-20-2026 21:56:39:652,-261046.783,-131654.457,65585.159,54863.251,61589.74,35719.831,44431.423,231545.431
2.044,09-20-2026 21:56:39:656,-268266.397,-121251.508,70862.317,55675.781,51259.881,38006.325,43246.558,230725.122
2.048,09-20-2026 21:56:39:660,-278951.425,-210716.869,84620.62,57453.192,49298.516,46791.276,51935.575,160998.855
2.052,09-20-2026 21:56:39:664,-279384.602,-253368.959,89520.838,58011.807,58974.586,51003.239,59966.333,127366.185
2.056,09-20-2026 21:56:39:668,-278229.463,-235683.946,78401.113,56462.92,65904.744,44504.782,55358.521,188069.053
2.06,09-20-2026 21:56:39:672,-261046.783,-131654.457,65585.159,54837.859,61589.74,35719.831,44299.772,231545.431
2.064,09-20-2026 21:56:39:676,-268266.397,-121251.508,70673.847,55650.39,51259.881,38006.325,43246.558,230725.122
2.068,09-20-2026 21:56:39:680,-278951.425,-210716.869,84432.15,57453.192,49298.516,46791.276,51935.575,160998.855
2.072,09-20-2026 21:56:39:684,-279384.602,-253368.959,89520.838,58037.199,58974.586,51003.239,59966.333,127366.185
2.076,09-20-2026 21:56:39:688,-278229.463,-235683.946,78401.113,56462.92,65904.744,44504.782,55358.521,188069.053
2.08,09-20-2026 21:56:39:692,-261335.568,-132694.752,65585.159,54837.859,61589.74,35719.831,44299.772,231545.431
2.084,09-20-2026 21:56:39:696,-268266.397,-121251.508,70673.847,55624.998,51259.881,38006.325,43246.558,230725.122
2.088,09-20-2026 21:56:39:700,-278951.425,-210716.869,84432.15,57402.409,49298.516,46670.934,51803.923,160998.855
2.092,09-20-2026 21:56:39:704,-279384.602,-253368.959,89520.838,57986.415,58974.586,51003.239,59834.681,127366.185
2.096,09-20-2026 21:56:39:708,-278229.463,-235683.946,78212.643,56437.529,65773.987,44504.782,55226.869,188069.053
2.1,09-20-2026 21:56:39:712,-261335.568,-132694.752,65585.159,54812.468,61589.74,35719.831,44299.772,231545.431
2.104,09-20-2026 21:56:39:716,-268337.207,-121531.352,70740.41,55583.022,51206.237,38007.756,43229.525,230731.47
2.108,09-20-2026 21:56:39:720,-279019.911,-210781.421,84495.45,57384.393,49227.437,46753.546,51853.633,161040.698
2.112,09-20-2026 21:56:39:724,-279316.652,-253330.872,89394.506,57958.744,58989.517,50946.733,59824.399,127024.964
2.116,09-20-2026 21:56:39:728,-278278.056,-235688.416,78277.418,56392.334,65849.357,44477.245,55251.009,187589.563
2.12,09-20-2026 21:56:39:732,-261363.776,-132947.058,65464.504,54747.603,61627.917,35731.454,44274.872,231561.122
2.124,09-20-2026 21:56:39:736,-268188.836,-121531.352,70740.41,55556.915,51206.237,38007.756,43229.525,230731.47
2.128,09-20-2026 21:56:39:740,-279019.911,-210781.421,84307.025,57358.287,49227.437,46753.546,51853.633,161040.698
2.132,09-20-2026 21:56:39:744,-279316.652,-253330.872,89394.506,57932.637,58857.597,50946.733,59824.399,127024.964
2.136,09-20-2026 21:56:39:748,-278129.685,-235688.416,78277.418,56366.227,65849.357,44477.245,55251.009,187589.563
2.14,09-20-2026 21:56:39:752,-261067.034,-131909.267,65464.504,54721.496,61627.917,35731.454,44274.872,231561.122
2.144,09-20-2026 21:56:39:756,-268188.836,-121531.352,70740.41,55530.808,51206.237,38007.756,43229.525,230731.47
2.148,09-20-2026 21:56:39:760,-279019.911,-210781.421,84307.025,57332.18,49227.437,46753.546,51722.965,161040.698
2.152,09-20-2026 21:56:39:764,-279316.652,-253330.872,89394.506,57906.53,58857.597,50946.733,59824.399,126195.312
2.156,09-20-2026 21:56:39:768,-278278.056,-235688.416,78277.418,56340.12,65849.357,44477.245,55251.009,187589.563
2.16,09-20-2026 21:56:39:772,-261363.776,-132947.058,65464.504,54695.389,61627.917,35731.454,44405.54,231561.122
2.164,09-20-2026 21:56:39:776,-268188.836,-121531.352,70740.41,55504.701,51206.237,38007.756,43229.525,230731.47
2.168,09-20-2026 21:56:39:780,-278871.54,-210781.421,84307.025,57306.073,49227.437,46753.546,51722.965,160211.046
2.172,09-20-2026 21:56:39:784,-279316.652,-253330.872,89394.506,57880.423,58857.597,50946.733,59824.399,126195.312
2.176,09-20-2026 21:56:39:788,-277981.314,-234650.625,78088.993,56287.906,65981.277,44477.245,55251.009,187589.563
2.18,09-20-2026 21:56:39:792,-260473.551,-130871.475,65464.504,54643.176,61627.917,35731.454,44274.872,231561.122
2.184,09-20-2026 21:56:39:796,-268040.465,-121531.352,70740.41,55478.594,51206.237,38127.561,43229.525,230731.47
2.188,09-20-2026 21:56:39:800,-278871.54,-210781.421,84307.025,57279.966,49227.437,46753.546,51853.633,160211.046
2.192,09-20-2026 21:56:39:804,-279316.652,-253330.872,89394.506,57854.317,58857.597,50946.733,59824.399,126195.312
2.196,09-20-2026 21:56:39:808,-278129.685,-235688.416,78277.418,56261.799,65981.277,44477.245,55251.009,187589.563
2.2,09-20-2026 21:56:39:812,-260770.292,-131909.267,65464.504,54643.176,61759.837,35731.454,44274.872,231561.122
2.204,09-20-2026 21:56:39:816,-268290.537,-121558.487,70704.379,55470.056,51287.508,38170.208,43301.364,230751.497
2.208,09-20-2026 21:56:39:820,-278979.677,-210766.266,84449.629,57282.38,49157.476,46792.975,51771.558,159994.279
2.212,09-20-2026 21:56:39:824,-279276.598,-253295.556,89345.198,57843.945,58875.747,50984.597,59850.819,125458.017
2.216,09-20-2026 21:56:39:828,-278088.916,-235661.46,78236.023,56261.352,66064.604,44517.522,55289.946,187791.757
2.22,09-20-2026 21:56:39:832,-260719.062,-131931.485,65432.228,54627.708,61804.54,35774.995,44343.849,231593.845
2.224,09-20-2026 21:56:39:836,-268142.077,-121558.487,70704.379,55470.056,51287.508,38050.447,43301.364,230751.497
2.228,09-20-2026 21:56:39:840,-278979.677,-210766.266,84449.629,57256.854,49157.476,46792.975,51771.558,159994.279
2.232,09-20-2026 21:56:39:844,-279276.598,-253295.556,89345.198,57843.945,58875.747,50984.597,59850.819,125458.017
2.236,09-20-2026 21:56:39:848,-278088.916,-234624.16,78047.732,56261.352,66064.604,44397.762,55289.946,186949.409
2.24,09-20-2026 21:56:39:852,-260422.142,-130894.185,65432.228,54653.234,61804.54,35774.995,44343.849,231593.845
2.244,09-20-2026 21:56:39:856,-268290.537,-121558.487,70704.379,55521.107,51287.508,38170.208,43301.364,230751.497
2.248,09-20-2026 21:56:39:860,-278979.677,-210766.266,84261.338,57282.38,49157.476,46792.975,51771.558,159151.931
2.252,09-20-2026 21:56:39:864,-279276.598,-253295.556,89345.198,57843.945,58875.747,50984.597,59850.819,124615.669
2.256,09-20-2026 21:56:39:868,-277940.455,-234624.16,78047.732,56286.878,66064.604,44397.762,55289.946,186949.409
2.26,09-20-2026 21:56:39:872,-260422.142,-129856.885,65432.228,54678.76,61804.54,35774.995,44343.849,231593.845
2.264,09-20-2026 21:56:39:876,-268290.537,-121558.487,70892.67,55546.633,51287.508,38170.208,43301.364,230751.497
2.268,09-20-2026 21:56:39:880,-278979.677,-210766.266,84449.629,57307.906,49157.476,46792.975,51901.868,159151.931
2.272,09-20-2026 21:56:39:884,-279276.598,-253295.556,89345.198,57869.471,58742.62,50984.597,59850.819,124615.669
2.276,09-20-2026 21:56:39:888,-278088.916,-234624.16,78236.023,56312.404,66064.604,44517.522,55420.256,186107.062
2.28,09-20-2026 21:56:39:892,-260719.062,-130894.185,65432.228,54780.862,61804.54,35774.995,44343.849,231593.845
2.284,09-20-2026 21:56:39:896,-268290.537,-121558.487,70704.379,55572.159,51287.508,38170.208,43301.364,230751.497
2.288,09-20-2026 21:56:39:900,-278979.677,-210766.266,84449.629,57307.906,49157.476,46792.975,51771.558,159151.931
2.292,09-20-2026 21:56:39:904,-279276.598,-253295.556,89345.198,57869.471,58875.747,50984.597,59850.819,124615.669
2.296,09-20-2026 21:56:39:908,-278088.916,-234624.16,78236.023,56363.455,66064.604,44517.522,55289.946,186949.409
2.3,09-20-2026 21:56:39:912,-260867.522,-130894.185,65432.228,54806.388,61804.54,35774.995,44343.849,231593.845
2.304,09-20-2026 21:56:39:916,-268416.377,-121903.732,70730.397,55638.096,51294.929,38197.522,43316.295,230477.018
2.308,09-20-2026 21:56:39:920,-278979.856,-210865.463,84280.918,57337.276,49184.209,46810.633,51771.96,159249.831
2.312,09-20-2026 21:56:39:924,-279269.267,-253277.451,89362.364,57895.578,58814.369,50997.561,59837.363,124893.188
2.316,09-20-2026 21:56:39:928,-278111.625,-235691.993,78258.464,56390.59,65938.048,44537.728,55414.4,186902.739
2.32,09-20-2026 21:56:39:932,-260891.707,-131213.681,65460.749,54861.329,61716.609,35804.991,44356.992,231314.985
2.324,09-20-2026 21:56:39:936,-268271.672,-121903.732,70730.397,55662.37,51294.929,38197.522,43316.295,230477.018
2.328,09-20-2026 21:56:39:940,-278979.856,-210865.463,84280.918,57361.55,49184.209,46810.633,51771.96,160087.798
2.332,09-20-2026 21:56:39:944,-279269.267,-253277.451,89362.364,57895.578,58814.369,50997.561,59837.363,124893.188
2.336,09-20-2026 21:56:39:948,-278111.625,-234657.554,78258.464,56414.864,65938.048,44537.728,55284.313,186902.739
2.34,09-20-2026 21:56:39:952,-260891.707,-131213.681,65460.749,54861.329,61584.689,35804.991,44356.992,231314.985
2.344,09-20-2026 21:56:39:956,-268271.672,-121903.732,70730.397,55662.37,51163.009,38197.522,43316.295,230477.018
2.348,09-20-2026 21:56:39:960,-278835.151,-209831.024,84280.918,57361.55,49184.209,46810.633,51771.96,159249.831
2.352,09-20-2026 21:56:39:964,-279269.267,-253277.451,89362.364,57919.852,58814.369,50997.561,59837.363,124893.188
2.356,09-20-2026 21:56:39:968,-278111.625,-235691.993,78258.464,56439.138,65938.048,44537.728,55284.313,186902.739
2.36,09-20-2026 21:56:39:972,-260891.707,-132248.119,65460.749,54885.603,61584.689,35804.991,44356.992,231314.985
2.364,09-20-2026 21:56:39:976,-268271.672,-121903.732,70730.397,55686.644,51294.929,38077.895,43316.295,230477.018
2.368,09-20-2026 21:56:39:980,-278835.151,-209831.024,84280.918,57385.824,49184.209,46691.006,51641.873,160925.765
2.372,09-20-2026 21:56:39:984,-279269.267,-253277.451,89362.364,57919.852,58814.369,50997.561,59837.363,125731.155
2.376,09-20-2026 21:56:39:988,-278111.625,-235691.993,78258.464,56439.138,65806.128,44537.728,55284.313,186902.739
2.38,09-20-2026 21:56:39:992,-260891.707,-132248.119,65460.749,54909.877,61584.689,35804.991,44356.992,231314.985
2.384,09-20-2026 21:56:39:996,-268271.672,-121903.732,70730.397,55710.918,51163.009,38077.895,43316.295,230477.018
2.388,09-20-2026 21:56:40:000,-278835.151,-209831.024,84280.918,57385.824,49184.209,46691.006,51641.873,160925.765
2.392,09-20-2026 21:56:40:004,-279269.267,-253277.451,89362.364,57944.126,58814.369,50997.561,59837.363,125731.155
2.396,09-20-2026 21:56:40:008,-278111.625,-235691.993,78258.464,56439.138,65806.128,44537.728,55284.313,186902.739
2.4,09-20-2026 21:56:40:012,-261181.117,-132248.119,65460.749,54885.603,61584.689,35804.991,44356.992,231314.985
2.404,09-20-2026 21:56:40:016,-268111.633,-121715.083,70521.229,55577.97,51210.708,38081.561,43086.251,230314.431
2.408,09-20-2026 21:56:40:020,-278897.468,-209733.571,84211.002,57292.796,49412.644,46649.611,51533.199,160915.305
2.412,09-20-2026 21:56:40:024,-279185.09,-253225.059,89274.343,57856.239,58788.262,50933.635,59590.287,124961.54
2.416,09-20-2026 21:56:40:028,-278178.412,-236656.873,78397.537,56337.393,65723.651,44626.599,55171.884,185999.326
2.42,09-20-2026 21:56:40:032,-261352.511,-133105.711,65457.888,54769.552,61485.357,35820.548,44255.828,231150.565
2.424,09-20-2026 21:56:40:036,-268255.445,-121715.083,70521.229,55553.473,51339.141,38081.561,43086.251,231150.565
2.428,09-20-2026 21:56:40:040,-278753.657,-209733.571,84023.471,57268.299,49412.644,46530.61,51533.199,160915.305
2.432,09-20-2026 21:56:40:044,-279185.09,-253225.059,89274.343,57856.239,58788.262,50933.635,59590.287,124961.54
2.436,09-20-2026 21:56:40:048,-278034.601,-235621.361,78210.006,56337.393,65723.651,44507.598,55171.884,186835.46
2.44,09-20-2026 21:56:40:052,-260921.077,-132070.199,65457.888,54745.055,61485.357,35820.548,44125.875,231150.565
2.444,09-20-2026 21:56:40:056,-268255.445,-121715.083,70521.229,55553.473,51210.708,38081.561,43086.251,230314.431
2.448,09-20-2026 21:56:40:060,-278753.657,-209733.571,84023.471,57268.299,49412.644,46649.611,51533.199,160915.305
2.452,09-20-2026 21:56:40:064,-279185.09,-253225.059,89274.343,57856.239,58788.262,50933.635,59590.287,124961.54
2.456,09-20-2026 21:56:40:068,-278034.601,-235621.361,78210.006,56337.393,65723.651,44626.599,55171.884,185999.326
2.46,09-20-2026 21:56:40:072,-261064.888,-133105.711,65457.888,54745.055,61485.357,35820.548,44255.828,231150.565
2.464,09-20-2026 21:56:40:076,-268255.445,-121715.083,70521.229,55528.975,51339.141,38081.561,43086.251,230314.431
2.468,09-20-2026 21:56:40:080,-278753.657,-209733.571,84023.471,57243.801,49412.644,46649.611,51533.199,160915.305
2.472,09-20-2026 21:56:40:084,-279185.09,-253225.059,89274.343,57807.244,58788.262,50933.635,59590.287,124961.54
2.476,09-20-2026 21:56:40:088,-278034.601,-235621.361,78210.006,56312.896,65723.651,44507.598,55171.884,185999.326
2.48,09-20-2026 21:56:40:092,-261064.888,-133105.711,65457.888,54745.055,61613.791,35820.548,44255.828,231150.565
2.484,09-20-2026 21:56:40:096,-268111.633,-121715.083,70521.229,55528.975,51339.141,38081.561,43086.251,231150.565
2.488,09-20-2026 21:56:40:100,-278753.657,-209733.571,84023.471,57243.801,49412.644,46530.61,51403.245,160915.305
2.492,09-20-2026 21:56:40:104,-279185.09,-253225.059,89274.343,57807.244,58788.262,50933.635,59590.287,124961.54
2.496,09-20-2026 21:56:40:108,-278034.601,-235621.361,78210.006,56312.896,65723.651,44626.599,55171.884,185999.326
2.5,09-20-2026 21:56:40:112,-261208.699,-133105.711,65457.888,54745.055,61613.791,35820.548,44255.828,231150.565
2.504,09-20-2026 21:56:40:116,-268215.301,-121661.797,70553.55,55537.782,51379.597,37986.074,43046.822,231014.756
2.508,09-20-2026 21:56:40:120,-278890.494,-209691.684,84033.261,57261.235,49460.477,46528.375,51482.147,161344.771
2.512,09-20-2026 21:56:40:124,-279175.166,-253188.804,89275.371,57819.537,58800.198,50918.168,59528.149,125250.682
2.516,09-20-2026 21:56:40:128,-278036.479,-235582.827,78229.496,56314.55,65709.033,44511.443,55115.826,186526.693
2.52,09-20-2026 21:56:40:132,-261098.505,-133053.9,65498.658,54761.014,61614.908,35850.499,44214.79,231014.756
2.524,09-20-2026 21:56:40:136,-268072.965,-121661.797,70553.55,55537.782,51379.597,38104.718,43046.822,231014.756
2.528,09-20-2026 21:56:40:140,-278748.158,-209691.684,84033.261,57261.235,49460.477,46528.375,51482.147,161344.771
2.532,09-20-2026 21:56:40:144,-279175.166,-253188.804,89275.371,57819.537,58800.198,50918.168,59528.149,125250.682
2.536,09-20-2026 21:56:40:148,-278036.479,-235582.827,78229.496,56338.824,65709.033,44511.443,55115.826,186526.693
2.54,09-20-2026 21:56:40:152,-261240.841,-133053.9,65498.658,54785.288,61614.908,35850.499,44214.79,231014.756
2.544,09-20-2026 21:56:40:156,-268072.965,-121661.797,70553.55,55562.056,51379.597,38104.718,43046.822,231014.756
2.548,09-20-2026 21:56:40:160,-278748.158,-209691.684,84033.261,57261.235,49460.477,46528.375,51482.147,161344.771
2.552,09-20-2026 21:56:40:164,-279175.166,-253188.804,89275.371,57819.537,58800.198,50918.168,59528.149,124411.285
2.556,09-20-2026 21:56:40:168,-278036.479,-236618.473,78416.714,56338.824,65709.033,44630.086,55115.826,185687.296
2.56,09-20-2026 21:56:40:172,-261240.841,-133053.9,65498.658,54785.288,61614.908,35850.499,44214.79,231014.756
2.564,09-20-2026 21:56:40:176,-268072.965,-121661.797,70553.55,55562.056,51379.597,37986.074,43046.822,231014.756
2.568,09-20-2026 21:56:40:180,-278748.158,-209691.684,84033.261,57261.235,49460.477,46528.375,51352.373,161344.771
2.572,09-20-2026 21:56:40:184,-279175.166,-253188.804,89275.371,57843.811,58800.198,50918.168,59528.149,125250.682
2.576,09-20-2026 21:56:40:188,-278036.479,-235582.827,78229.496,56363.098,65709.033,44511.443,55115.826,186526.693
2.58,09-20-2026 21:56:40:192,-261240.841,-133053.9,65498.658,54785.288,61614.908,35850.499,44214.79,231014.756
2.584,09-20-2026 21:56:40:196,-268215.301,-121661.797,70553.55,55562.056,51379.597,38104.718,43046.822,231014.756
2.588,09-20-2026 21:56:40:200,-278748.158,-209691.684,84033.261,57261.235,49460.477,46528.375,51352.373,160505.374
2.592,09-20-2026 21:56:40:204,-279175.166,-253188.804,89275.371,57843.811,58800.198,50918.168,59528.149,124411.285
2.596,09-20-2026 21:56:40:208,-278178.814,-236618.473,78416.714,56363.098,65709.033,44630.086,55115.826,185687.296
2.6,09-20-2026 21:56:40:212,-261383.177,-134089.545,65498.658,54809.562,61614.908,35850.499,44214.79,231014.756
2.604,09-20-2026 21:56:40:216,-268110.426,-121521.964,70399.367,55564.38,51355.1,37987.952,42981.198,230915.112
2.608,09-20-2026 21:56:40:220,-278735.328,-209620.247,84056.507,57251.043,49438.661,46527.034,51298.192,161520.009
2.612,09-20-2026 21:56:40:224,-279160.324,-253151.164,89294.861,57853.423,58765.329,50915.173,59485.234,124283.612
2.616,09-20-2026 21:56:40:228,-278168.667,-236567.958,78443.984,56383.616,65664.508,44629.46,55196.784,185215.898
2.62,09-20-2026 21:56:40:232,-261452.155,-133959.369,65535.181,54793.335,61703.868,35853.182,44280.728,230915.112
2.624,09-20-2026 21:56:40:236,-267968.761,-121521.964,70399.367,55540.285,51355.1,37987.952,42981.198,230915.112
2.628,09-20-2026 21:56:40:240,-278735.328,-209620.247,83869.423,57226.948,49438.661,46408.435,51298.192,161520.009
2.632,09-20-2026 21:56:40:244,-279160.324,-253151.164,89294.861,57829.327,58765.329,50915.173,59485.234,124283.612
2.636,09-20-2026 21:56:40:248,-278027.001,-235531.507,78256.9,56359.521,65664.508,44510.862,55066.831,186062.179
2.64,09-20-2026 21:56:40:252,-261168.824,-132922.919,65535.181,54817.43,61576.106,35853.182,44150.775,230915.112
2.644,09-20-2026 21:56:40:256,-268110.426,-121521.964,70586.451,55588.476,51355.1,37987.952,42981.198,230915.112
2.648,09-20-2026 21:56:40:260,-278735.328,-209620.247,84056.507,57275.138,49438.661,46527.034,51298.192,160673.727
2.652,09-20-2026 21:56:40:264,-279160.324,-253151.164,89294.861,57853.423,58765.329,50915.173,59485.234,123437.33
2.656,09-20-2026 21:56:40:268,-278027.001,-236567.958,78443.984,56359.521,65664.508,44629.46,55066.831,185215.898
2.66,09-20-2026 21:56:40:272,-261310.489,-133959.369,65535.181,54793.335,61576.106,35853.182,44150.775,230915.112
2.664,09-20-2026 21:56:40:276,-268110.426,-121521.964,70399.367,55564.38,51355.1,37987.952,42981.198,230915.112
2.668,09-20-2026 21:56:40:280,-278735.328,-209620.247,83869.423,57251.043,49438.661,46527.034,51298.192,160673.727
2.672,09-20-2026 21:56:40:284,-279160.324,-253151.164,89294.861,57853.423,58765.329,50915.173,59485.234,123437.33
2.676,09-20-2026 21:56:40:288,-278027.001,-236567.958,78443.984,56359.521,65664.508,44629.46,55066.831,185215.898
2.68,09-20-2026 21:56:40:292,-261310.489,-133959.369,65535.181,54793.335,61576.106,35853.182,44150.775,230915.112
2.684,09-20-2026 21:56:40:296,-268110.426,-121521.964,70399.367,55564.38,51355.1,37987.952,42981.198,230915.112
2.688,09-20-2026 21:56:40:300,-278735.328,-208583.797,83869.423,57251.043,49438.661,46527.034,51298.192,160673.727
2.692,09-20-2026 21:56:40:304,-279160.324,-253151.164,89294.861,57853.423,58765.329,50915.173,59485.234,123437.33
2.696,09-20-2026 21:56:40:308,-278027.001,-236567.958,78443.984,56359.521,65664.508,44629.46,55066.831,184369.616
2.7,09-20-2026 21:56:40:312,-261452.155,-133959.369,65535.181,54793.335,61576.106,35853.182,44150.775,230915.112
2.704,09-20-2026 21:56:40:316,-268120.753,-121531.084,70525.744,55550.388,51388.493,37987.505,42915.618,230738.846
2.708,09-20-2026 21:56:40:320,-278692.01,-209602.768,83802.367,57267.494,49482.784,46507.275,51226.89,160501.171
2.712,09-20-2026 21:56:40:324,-279114.861,-253120.542,89225.213,57847.924,58757.238,50885.49,59408.299,123266.741
2.716,09-20-2026 21:56:40:328,-278128.21,-236542.342,78379.521,56372.664,65617.793,44613.993,55122.799,184195.809
2.72,09-20-2026 21:56:40:332,-261496.098,-135000.871,65476.887,54776.481,61552.279,35857.563,44214.254,230738.846
2.724,09-20-2026 21:56:40:336,-267979.803,-121531.084,70338.749,55550.388,51388.493,37987.505,42915.618,230738.846
2.728,09-20-2026 21:56:40:340,-278692.01,-208566.631,83802.367,57243.309,49482.784,46388.945,51226.89,160501.171
2.732,09-20-2026 21:56:40:344,-279114.861,-253120.542,89225.213,57847.924,58757.238,50885.49,59408.299,123266.741
2.736,09-20-2026 21:56:40:348,-277987.26,-236542.342,78192.526,56348.48,65617.793,44613.993,54992.936,185042.046
2.74,09-20-2026 21:56:40:352,-261214.198,-133964.733,65476.887,54776.481,61552.279,35857.563,44084.39,230738.846
2.744,09-20-2026 21:56:40:356,-267979.803,-121531.084,70525.744,55550.388,51388.493,37987.505,42915.618,230738.846
2.748,09-20-2026 21:56:40:360,-278692.01,-209602.768,83802.367,57243.309,49482.784,46507.275,51226.89,160501.171
2.752,09-20-2026 21:56:40:364,-279114.861,-253120.542,89225.213,57847.924,58757.238,50885.49,59408.299,123266.741
2.756,09-20-2026 21:56:40:368,-277987.26,-236542.342,78379.521,56348.48,65617.793,44613.993,54992.936,185042.046
2.76,09-20-2026 21:56:40:372,-261355.148,-133964.733,65476.887,54776.481,61552.279,35857.563,44084.39,230738.846
2.764,09-20-2026 21:56:40:376,-267979.803,-121531.084,70338.749,55526.204,51388.493,37987.505,42915.618,230738.846
2.768,09-20-2026 21:56:40:380,-278692.01,-208566.631,83802.367,57219.125,49482.784,46507.275,51226.89,160501.171
2.772,09-20-2026 21:56:40:384,-279114.861,-253120.542,89225.213,57823.739,58757.238,50885.49,59408.299,123266.741
2.776,09-20-2026 21:56:40:388,-278128.21,-236542.342,78379.521,56348.48,65617.793,44613.993,54992.936,185042.046
2.78,09-20-2026 21:56:40:392,-261355.148,-133964.733,65476.887,54776.481,61552.279,35857.563,44084.39,230738.846
2.784,09-20-2026 21:56:40:396,-267979.803,-121531.084,70338.749,55550.388,51388.493,37987.505,42915.618,230738.846
2.788,09-20-2026 21:56:40:400,-278692.01,-208566.631,83802.367,57243.309,49482.784,46507.275,51226.89,161347.408
2.792,09-20-2026 21:56:40:404,-279114.861,-253120.542,89225.213,57823.739,58757.238,50885.49,59408.299,123266.741
2.796,09-20-2026 21:56:40:408,-278128.21,-236542.342,78379.521,56348.48,65617.793,44613.993,54992.936,185042.046
2.8,09-20-2026 21:56:40:412,-261355.148,-135000.871,65476.887,54776.481,61552.279,35857.563,44214.254,230738.846
2.804,09-20-2026 21:56:40:416,-267860.221,-121408.775,70316.263,55538.542,51405.168,37989.517,42812.129,230555.517
2.808,09-20-2026 21:56:40:420,-278658.304,-208496.893,83802.412,57218.946,49502.14,46406.826,51152.012,161709.775
2.812,09-20-2026 21:56:40:424,-279079.009,-253077.716,89234.333,57819.09,58763.541,50911.865,59361.584,123462.14
2.816,09-20-2026 21:56:40:428,-278097.365,-236489.503,78370.491,56354.738,65614.44,44628.521,55061.332,184658.356
2.82,09-20-2026 21:56:40:432,-261269.183,-133849.935,65446.265,54794.363,61554.648,35855.551,44115.236,230555.517
2.824,09-20-2026 21:56:40:436,-268000.456,-121408.775,70316.263,55538.542,51405.168,37989.517,42812.129,230555.517
2.828,09-20-2026 21:56:40:440,-278658.304,-208496.893,83802.412,57218.946,49502.14,46406.826,51152.012,160859.828
2.832,09-20-2026 21:56:40:444,-279079.009,-253077.716,89234.333,57843.096,58763.541,50911.865,59361.584,122612.193
2.836,09-20-2026 21:56:40:448,-278097.365,-237526.266,78370.491,56378.744,65614.44,44747.075,55061.332,184658.356
2.84,09-20-2026 21:56:40:452,-261689.888,-135923.461,65446.265,54794.363,61681.516,35855.551,44115.236,230555.517
2.844,09-20-2026 21:56:40:456,-267719.986,-121408.775,70316.263,55538.542,51405.168,37870.963,42812.129,230555.517
2.848,09-20-2026 21:56:40:460,-278658.304,-208496.893,83802.412,57218.946,49502.14,46406.826,51152.012,160859.828
2.852,09-20-2026 21:56:40:464,-279079.009,-253077.716,89234.333,57819.09,58763.541,50911.865,59361.584,122612.193
2.856,09-20-2026 21:56:40:468,-277957.13,-236489.503,78370.491,56354.738,65614.44,44628.521,55061.332,184658.356
2.86,09-20-2026 21:56:40:472,-261269.183,-133849.935,65446.265,54794.363,61554.648,35855.551,44115.236,230555.517
2.864,09-20-2026 21:56:40:476,-267860.221,-121408.775,70316.263,55562.548,51405.168,37989.517,42812.129,230555.517
2.868,09-20-2026 21:56:40:480,-278658.304,-208496.893,83802.412,57242.952,49502.14,46406.826,51152.012,160859.828
2.872,09-20-2026 21:56:40:484,-279079.009,-253077.716,89234.333,57843.096,58763.541,50911.865,59361.584,122612.193
2.876,09-20-2026 21:56:40:488,-277957.13,-236489.503,78370.491,56378.744,65614.44,44628.521,55061.332,184658.356
2.88,09-20-2026 21:56:40:492,-261269.183,-133849.935,65446.265,54794.363,61554.648,35855.551,44115.236,230555.517
2.884,09-20-2026 21:56:40:496,-267719.986,-121408.775,70316.263,55562.548,51405.168,37989.517,42812.129,230555.517
2.888,09-20-2026 21:56:40:500,-278658.304,-208496.893,83802.412,57242.952,49502.14,46406.826,51152.012,160859.828
2.892,09-20-2026 21:56:40:504,-279079.009,-253077.716,89234.333,57843.096,58763.541,50911.865,59361.584,122612.193
2.896,09-20-2026 21:56:40:508,-278097.365,-237526.266,78370.491,56402.75,65614.44,44628.521,55061.332,183808.408
2.9,09-20-2026 21:56:40:512,-261409.418,-134886.698,65446.265,54818.369,61681.516,35855.551,44115.236,230555.517
2.904,09-20-2026 21:56:40:516,-267603.578,-121427.282,70322.477,55566.884,51444.686,37890.901,42719.727,230315.772
2.908,09-20-2026 21:56:40:520,-278615.031,-208485.36,83795.751,57244.159,49549.705,46410.67,51076.776,160771.18
2.912,09-20-2026 21:56:40:524,-279033.188,-253050.805,89222.487,57843.185,58771.945,50907.216,59303.246,122135.296
2.916,09-20-2026 21:56:40:528,-278057.489,-237504.719,78369.016,56381.56,65593.876,44635.718,54994.143,183952.711
2.92,09-20-2026 21:56:40:532,-261331.232,-134900.556,65457.128,54800.13,61551.25,35879.288,44025.516,230315.772
2.924,09-20-2026 21:56:40:536,-267742.964,-121427.282,70322.477,55542.923,51444.686,37890.901,42719.727,230315.772
2.928,09-20-2026 21:56:40:540,-278615.031,-208485.36,83608.622,57220.198,49549.705,46410.67,51076.776,160771.18
2.932,09-20-2026 21:56:40:544,-279033.188,-253050.805,89222.487,57843.185,58771.945,50907.216,59303.246,122135.296
2.936,09-20-2026 21:56:40:548,-278057.489,-237504.719,78369.016,56381.56,65593.876,44635.718,54994.143,183952.711
2.94,09-20-2026 21:56:40:552,-261470.617,-134900.556,65457.128,54800.13,61551.25,35879.288,44025.516,230315.772
2.944,09-20-2026 21:56:40:556,-267742.964,-121427.282,70322.477,55518.962,51444.686,37890.901,42719.727,230315.772
2.948,09-20-2026 21:56:40:560,-278615.031,-208485.36,83795.751,57220.198,49549.705,46410.67,51076.776,159912.605
2.952,09-20-2026 21:56:40:564,-279033.188,-253050.805,89222.487,57819.224,58771.945,50907.216,59303.246,121276.721
2.956,09-20-2026 21:56:40:568,-278057.489,-237504.719,78369.016,56357.599,65593.876,44635.718,54994.143,183094.136
2.96,09-20-2026 21:56:40:572,-261331.232,-134900.556,65457.128,54800.13,61551.25,35879.288,44025.516,230315.772
2.964,09-20-2026 21:56:40:576,-267742.964,-121427.282,70322.477,55518.962,51444.686,37890.901,42719.727,230315.772
2.968,09-20-2026 21:56:40:580,-278615.031,-208485.36,83608.622,57220.198,49549.705,46410.67,51076.776,159912.605
2.972,09-20-2026 21:56:40:584,-279033.188,-253050.805,89222.487,57819.224,58771.945,50907.216,59303.246,121276.721
2.976,09-20-2026 21:56:40:588,-278057.489,-237504.719,78369.016,56381.56,65593.876,44635.718,54994.143,183094.136
2.98,09-20-2026 21:56:40:592,-261331.232,-134900.556,65457.128,54800.13,61551.25,35879.288,44025.516,230315.772
2.984,09-20-2026 21:56:40:596,-267742.964,-121427.282,70322.477,55518.962,51444.686,37890.901,42719.727,230315.772
2.988,09-20-2026 21:56:40:600,-278615.031,-208485.36,83608.622,57196.237,49549.705,46292.34,50946.197,159912.605
2.992,09-20-2026 21:56:40:604,-279033.188,-253050.805,89222.487,57843.185,58771.945,50907.216,59303.246,121276.721
2.996,09-20-2026 21:56:40:608,-277918.104,-237504.719,78369.016,56381.56,65593.876,44635.718,54994.143,183094.136
3,09-20-2026 21:56:40:612,-261331.232,-134900.556,65457.128,54800.13,61551.25,35879.288,44025.516,230315.772
3.004,09-20-2026 21:56:40:616,-267709.168,-121282.532,70150.637,55545.337,51496.72,37901.451,42658.349,230327.529
3.008,09-20-2026 21:56:40:620,-278560.314,-208400.692,83614.255,57216.353,49609.116,46421.22,51021.12,159722.75
3.012,09-20-2026 21:56:40:624,-278977.666,-252996.892,89224.096,57837.016,58795.459,50917.766,59253.223,120976.224
3.016,09-20-2026 21:56:40:628,-278003.845,-237440.078,78378.404,56380.845,65590.836,44764.599,54941.169,182970.665
3.02,09-20-2026 21:56:40:632,-261448.891,-135802.226,65475.77,54805.315,61689.787,35889.838,44095.7,230327.529
3.024,09-20-2026 21:56:40:636,-267570.051,-121282.532,70150.637,55521.465,51496.72,37901.451,42658.349,230327.529
3.028,09-20-2026 21:56:40:640,-278560.314,-208400.692,83614.255,57216.353,49609.116,46302.89,51021.12,160583.783
3.032,09-20-2026 21:56:40:644,-278977.666,-252996.892,89224.096,57837.016,58795.459,50917.766,59253.223,120976.224
3.036,09-20-2026 21:56:40:648,-278003.845,-237440.078,78565.398,56404.717,65590.836,44764.599,54941.169,182970.665
3.04,09-20-2026 21:56:40:652,-261588.009,-136839.347,65475.77,54805.315,61689.787,35889.838,44095.7,230327.529
3.044,09-20-2026 21:56:40:656,-267570.051,-121282.532,70150.637,55521.465,51496.72,37901.451,42658.349,230327.529
3.048,09-20-2026 21:56:40:660,-278560.314,-208400.692,83614.255,57216.353,49609.116,46302.89,51021.12,160583.783
3.052,09-20-2026 21:56:40:664,-278977.666,-252996.892,89224.096,57837.016,58795.459,50917.766,59253.223,121837.258
3.056,09-20-2026 21:56:40:668,-278003.845,-237440.078,78378.404,56380.845,65590.836,44646.268,54941.169,182970.665
3.06,09-20-2026 21:56:40:672,-261309.774,-134765.105,65475.77,54829.187,61563.946,35889.838,43965.032,230327.529
3.064,09-20-2026 21:56:40:676,-267709.168,-121282.532,70150.637,55545.337,51496.72,37901.451,42658.349,230327.529
3.068,09-20-2026 21:56:40:680,-278560.314,-208400.692,83614.255,57216.353,49609.116,46302.89,51021.12,160583.783
3.072,09-20-2026 21:56:40:684,-278977.666,-252996.892,89224.096,57837.016,58795.459,50917.766,59253.223,120976.224
3.076,09-20-2026 21:56:40:688,-278003.845,-237440.078,78378.404,56380.845,65590.836,44646.268,54941.169,182970.665
3.08,09-20-2026 21:56:40:692,-261309.774,-135802.226,65475.77,54805.315,61563.946,35889.838,43965.032,230327.529
3.084,09-20-2026 21:56:40:696,-267430.933,-121282.532,70150.637,55521.465,51496.72,37901.451,42658.349,230327.529
3.088,09-20-2026 21:56:40:700,-278560.314,-208400.692,83614.255,57192.481,49609.116,46302.89,51021.12,160583.783
3.092,09-20-2026 21:56:40:704,-278977.666,-252996.892,89224.096,57837.016,58795.459,50917.766,59253.223,120976.224
3.096,09-20-2026 21:56:40:708,-278003.845,-237440.078,78378.404,56380.845,65590.836,44764.599,54941.169,182970.665
3.1,09-20-2026 21:56:40:712,-261448.891,-135802.226,65475.77,54805.315,61563.946,35889.838,43965.032,230327.529
3.104,09-20-2026 21:56:40:716,-267548.28,-121589.288,70133.471,55522.672,51424.927,37890.543,42641.406,230403.481
3.108,09-20-2026 21:56:40:720,-278510.291,-208478.386,83577.777,57204.864,49674.427,46282.461,50978.428,160960.276
3.112,09-20-2026 21:56:40:724,-278926.57,-252957.33,89179.571,57820.878,58802.031,50892.106,59185.184,121523.395
3.116,09-20-2026 21:56:40:728,-277955.252,-237441.419,78536.162,56399.307,65553.956,44745.913,54886.407,183250.688
3.12,09-20-2026 21:56:40:732,-261442.856,-136070.804,65465.309,54811.887,61552.815,35881.211,44074.332,230403.481
3.124,09-20-2026 21:56:40:736,-267548.28,-121589.288,70133.471,55522.672,51424.927,37890.543,42641.406,230403.481
3.128,09-20-2026 21:56:40:740,-278510.291,-208478.386,83577.777,57204.864,49674.427,46282.461,50978.428,160960.276
3.132,09-20-2026 21:56:40:744,-278926.57,-252957.33,89179.571,57820.878,58802.031,50892.106,59185.184,121523.395
3.136,09-20-2026 21:56:40:748,-277955.252,-237441.419,78536.162,56399.307,65553.956,44745.913,55016.673,182393.364
3.14,09-20-2026 21:56:40:752,-261720.376,-137105.198,65465.309,54811.887,61677.851,35881.211,44074.332,230403.481
3.144,09-20-2026 21:56:40:756,-267548.28,-121589.288,70133.471,55522.672,51549.962,37890.543,42641.406,230403.481
3.148,09-20-2026 21:56:40:760,-278510.291,-208478.386,83577.777,57181.171,49674.427,46282.461,50978.428,160960.276
3.152,09-20-2026 21:56:40:764,-278926.57,-252957.33,89179.571,57820.878,58802.031,50892.106,59185.184,121523.395
3.156,09-20-2026 21:56:40:768,-277955.252,-237441.419,78349.436,56375.615,65553.956,44627.716,54886.407,183250.688
3.16,09-20-2026 21:56:40:772,-261304.097,-136070.804,65465.309,54811.887,61552.815,35881.211,43944.066,230403.481
3.164,09-20-2026 21:56:40:776,-267548.28,-121589.288,70133.471,55522.672,51424.927,37890.543,42641.406,230403.481
3.168,09-20-2026 21:56:40:780,-278510.291,-208478.386,83577.777,57181.171,49674.427,46282.461,50848.162,160960.276
3.172,09-20-2026 21:56:40:784,-278926.57,-252957.33,89179.571,57820.878,58802.031,50892.106,59185.184,121523.395
3.176,09-20-2026 21:56:40:788,-277955.252,-237441.419,78536.162,56375.615,65553.956,44745.913,54886.407,183250.688
3.18,09-20-2026 21:56:40:792,-261442.856,-136070.804,65465.309,54811.887,61552.815,35881.211,43944.066,230403.481
3.184,09-20-2026 21:56:40:796,-267548.28,-121589.288,70133.471,55522.672,51549.962,37890.543,42641.406,230403.481
3.188,09-20-2026 21:56:40:800,-278510.291,-208478.386,83577.777,57204.864,49674.427,46282.461,50848.162,160960.276
3.192,09-20-2026 21:56:40:804,-278926.57,-252957.33,89179.571,57820.878,58802.031,50892.106,59185.184,121523.395
3.196,09-20-2026 21:56:40:808,-277955.252,-237441.419,78536.162,56375.615,65553.956,44745.913,54886.407,183250.688
3.2,09-20-2026 21:56:40:812,-261442.856,-136070.804,65465.309,54811.887,61552.815,35881.211,43944.066,230403.481
3.204,09-20-2026 21:56:40:816,-267546.358,-121577.039,70174.062,55514.447,51467.261,37761.752,42568.942,230413.226
3.208,09-20-2026 21:56:40:820,-278464.738,-207416.902,83589.4,57185.463,49726.775,46249.336,50908.825,161219.378
3.212,09-20-2026 21:56:40:824,-278874.177,-252922.371,89179.124,57806.126,58802.165,50846.776,59118.397,121432.915
3.216,09-20-2026 21:56:40:828,-277918.819,-237409.143,78558.648,56373.826,65515.466,44716.855,54948.456,182842.455
3.22,09-20-2026 21:56:40:832,-261541.249,-137090.267,65515.958,54798.297,61537.214,35875.623,44002.359,230413.226
3.224,09-20-2026 21:56:40:836,-267409.878,-121577.039,70174.062,55490.575,51467.261,37761.752,42568.942,230413.226
3.228,09-20-2026 21:56:40:840,-278464.738,-208451.117,83403.076,57161.591,49726.775,46249.336,50908.825,161219.378
3.232,09-20-2026 21:56:40:844,-278874.177,-252922.371,89179.124,57806.126,58802.165,50846.776,59118.397,121432.915
3.236,09-20-2026 21:56:40:848,-277918.819,-237409.143,78558.648,56373.826,65515.466,44716.855,54948.456,182842.455
3.24,09-20-2026 21:56:40:852,-261541.249,-137090.267,65515.958,54774.425,61537.214,35875.623,44002.359,230413.226
3.244,09-20-2026 21:56:40:856,-267409.878,-121577.039,70174.062,55490.575,51467.261,37761.752,42568.942,230413.226
3.248,09-20-2026 21:56:40:860,-278464.738,-207416.902,83403.076,57161.591,49726.775,46131.452,50778.514,161219.378
3.252,09-20-2026 21:56:40:864,-278874.177,-252922.371,89179.124,57806.126,58802.165,50846.776,59118.397,121432.915
3.256,09-20-2026 21:56:40:868,-277918.819,-237409.143,78372.324,56349.955,65515.466,44598.972,54818.145,182842.455
3.26,09-20-2026 21:56:40:872,-261541.249,-136056.052,65515.958,54774.425,61412.893,35875.623,43872.049,230413.226
3.264,09-20-2026 21:56:40:876,-267546.358,-121577.039,70174.062,55490.575,51467.261,37761.752,42568.942,230413.226
3.268,09-20-2026 21:56:40:880,-278464.738,-208451.117,83589.4,57161.591,49726.775,46249.336,50908.825,160354.455
3.272,09-20-2026 21:56:40:884,-278874.177,-252922.371,89179.124,57782.255,58802.165,50846.776,59118.397,120567.992
3.276,09-20-2026 21:56:40:888,-277918.819,-238443.358,78558.648,56349.955,65515.466,44716.855,54948.456,181977.532
3.28,09-20-2026 21:56:40:892,-261541.249,-137090.267,65515.958,54774.425,61537.214,35875.623,44002.359,230413.226
3.284,09-20-2026 21:56:40:896,-267409.878,-121577.039,70174.062,55490.575,51591.581,37761.752,42568.942,230413.226
3.288,09-20-2026 21:56:40:900,-278464.738,-207416.902,83403.076,57161.591,49726.775,46131.452,50778.514,161219.378
3.292,09-20-2026 21:56:40:904,-278874.177,-252922.371,89179.124,57782.255,58802.165,50846.776,59118.397,120567.992
3.296,09-20-2026 21:56:40:908,-277918.819,-238443.358,78558.648,56326.083,65515.466,44716.855,54948.456,181977.532
3.3,09-20-2026 21:56:40:912,-261541.249,-137090.267,65515.958,54774.425,61537.214,35875.623,44002.359,230413.226
3.304,09-20-2026 21:56:40:916,-267391.997,-121253.252,70163.154,55493.883,51501.861,37758.623,42537.337,230322.031
3.308,09-20-2026 21:56:40:920,-278421.241,-208318.839,83392.168,57142.995,49765.131,46128.323,50755.358,160906.453
3.312,09-20-2026 21:56:40:924,-278834.838,-252888.129,89168.216,57779.081,58820.94,50843.647,59103.824,120124.801
3.316,09-20-2026 21:56:40:928,-277869.779,-237340.702,78547.74,56341.998,65519.758,44713.726,54929.591,181731.127
3.32,09-20-2026 21:56:40:932,-261463.778,-136800.678,65505.05,54787.121,61550.088,35872.493,43972.229,230322.031
3.324,09-20-2026 21:56:40:936,-267391.997,-121253.252,70163.154,55493.883,51501.861,37758.623,42537.337,230322.031
3.328,09-20-2026 21:56:40:940,-278421.241,-207282.344,83392.168,57142.995,49765.131,46128.323,50755.358,160906.453
3.332,09-20-2026 21:56:40:944,-278834.838,-252888.129,89168.216,57779.081,58820.94,50843.647,59103.824,120124.801
3.336,09-20-2026 21:56:40:948,-278007.645,-238377.197,78547.74,56365.556,65519.758,44831.609,54929.591,181731.127
3.34,09-20-2026 21:56:40:952,-261739.509,-137837.173,65505.05,54787.121,61674.14,35872.493,44102.674,230322.031
3.344,09-20-2026 21:56:40:956,-267391.997,-121253.252,69976.83,55470.324,51625.914,37758.623,42537.337,230322.031
3.348,09-20-2026 21:56:40:960,-278421.241,-207282.344,83392.168,57142.995,49765.131,46128.323,50755.358,160906.453
3.352,09-20-2026 21:56:40:964,-278834.838,-252888.129,89168.216,57779.081,58820.94,50843.647,59103.824,120124.801
3.356,09-20-2026 21:56:40:968,-277869.779,-237340.702,78547.74,56341.998,65519.758,44713.726,54799.146,181731.127
3.36,09-20-2026 21:56:40:972,-261325.912,-136800.678,65505.05,54787.121,61550.088,35872.493,43972.229,230322.031
3.364,09-20-2026 21:56:40:976,-267254.131,-121253.252,70163.154,55493.883,51501.861,37758.623,42537.337,230322.031
3.368,09-20-2026 21:56:40:980,-278421.241,-207282.344,83392.168,57142.995,49765.131,46128.323,50755.358,160906.453
3.372,09-20-2026 21:56:40:984,-278834.838,-252888.129,89168.216,57779.081,58820.94,50843.647,59103.824,120124.801
3.376,09-20-2026 21:56:40:988,-277869.779,-238377.197,78547.74,56341.998,65519.758,44713.726,54929.591,181731.127
3.38,09-20-2026 21:56:40:992,-261463.778,-136800.678,65505.05,54787.121,61550.088,35872.493,43972.229,230322.031
3.384,09-20-2026 21:56:40:996,-267254.131,-121253.252,69976.83,55493.883,51501.861,37758.623,42537.337,230322.031
3.388,09-20-2026 21:56:41:000,-278421.241,-207282.344,83392.168,57119.436,49765.131,46128.323,50755.358,160906.453
3.392,09-20-2026 21:56:41:004,-278834.838,-252888.129,89168.216,57755.522,58696.888,50843.647,59103.824,120124.801
3.396,09-20-2026 21:56:41:008,-277869.779,-238377.197,78547.74,56341.998,65519.758,44713.726,54929.591,181731.127
3.4,09-20-2026 21:56:41:012,-261463.778,-136800.678,65505.05,54787.121,61550.088,35872.493,43972.229,230322.031
3.404,09-20-2026 21:56:41:016,-267210.501,-121034.07,70002.087,55484.942,51518.402,37778.918,42473.813,230495.167
3.408,09-20-2026 21:56:41:020,-278390.843,-207167.054,83404.551,57127.795,49786.678,46120.053,50691.834,161000.912
3.412,09-20-2026 21:56:41:024,-278799.88,-252827.913,89175.056,57784.937,58816.38,50819.284,59040.3,120173.036
3.416,09-20-2026 21:56:41:028,-277845.461,-238299.458,78564.772,56376.777,65495.886,44827.765,54866.067,180980.51
3.42,09-20-2026 21:56:41:032,-261620.329,-137638.019,65534.599,54804.332,61661.355,35899.226,44039.15,229626.489
3.424,09-20-2026 21:56:41:036,-267210.501,-121034.07,70002.087,55508.412,51518.402,37778.918,42473.813,230495.167
3.428,09-20-2026 21:56:41:040,-278390.843,-207167.054,83404.551,57151.265,49786.678,46120.053,50691.834,161000.912
3.432,09-20-2026 21:56:41:044,-278799.88,-252827.913,89175.056,57784.937,58816.38,50819.284,59040.3,120173.036
3.436,09-20-2026 21:56:41:048,-277981.806,-238299.458,78750.918,56376.777,65495.886,44827.765,54996.512,181849.188
3.44,09-20-2026 21:56:41:052,-261756.675,-138675.766,65534.599,54804.332,61661.355,35899.226,44039.15,229626.489
3.444,09-20-2026 21:56:41:056,-267074.155,-121034.07,70002.087,55484.942,51642.096,37661.438,42473.813,230495.167
3.448,09-20-2026 21:56:41:060,-278390.843,-207167.054,83218.406,57127.795,49786.678,46002.572,50691.834,161869.59
3.452,09-20-2026 21:56:41:064,-278799.88,-252827.913,89175.056,57761.467,58692.686,50819.284,59040.3,120173.036
3.456,09-20-2026 21:56:41:068,-277845.461,-238299.458,78564.772,56353.308,65495.886,44710.284,54866.067,181849.188
3.46,09-20-2026 21:56:41:072,-261483.984,-136600.272,65534.599,54804.332,61537.661,35899.226,43908.706,230495.167
3.464,09-20-2026 21:56:41:076,-267210.501,-121034.07,70002.087,55484.942,51642.096,37778.918,42473.813,230495.167
3.468,09-20-2026 21:56:41:080,-278390.843,-207167.054,83404.551,57127.795,49786.678,46120.053,50691.834,161869.59
3.472,09-20-2026 21:56:41:084,-278799.88,-252827.913,89175.056,57784.937,58816.38,50819.284,59040.3,120173.036
3.476,09-20-2026 21:56:41:088,-277845.461,-238299.458,78564.772,56353.308,65495.886,44710.284,54866.067,181849.188
3.48,09-20-2026 21:56:41:092,-261620.329,-137638.019,65534.599,54804.332,61661.355,35899.226,44039.15,229626.489
3.484,09-20-2026 21:56:41:096,-267074.155,-121034.07,70002.087,55484.942,51642.096,37778.918,42473.813,230495.167
3.488,09-20-2026 21:56:41:100,-278390.843,-207167.054,83218.406,57127.795,49786.678,46120.053,50691.834,161869.59
3.492,09-20-2026 21:56:41:104,-278799.88,-252827.913,89175.056,57761.467,58816.38,50819.284,59040.3,120173.036
3.496,09-20-2026 21:56:41:108,-277845.461,-238299.458,78564.772,56376.777,65495.886,44827.765,54866.067,181849.188
3.5,09-20-2026 21:56:41:112,-261756.675,-137638.019,65534.599,54804.332,61661.355,35899.226,44039.15,229626.489
3.504,09-20-2026 21:56:41:116,-267268.257,-121439.218,69942.185,55487.58,51574.862,37704.04,42456.334,230359.269
3.508,09-20-2026 21:56:41:120,-278342.295,-207279.081,83315.68,57117.916,49855.655,46007.087,50663.09,161737.625
3.512,09-20-2026 21:56:41:124,-278747.443,-252784.551,89073.713,57746.76,58697.29,50801.805,59000.112,119508.921
3.516,09-20-2026 21:56:41:128,-277802.098,-238305.537,78486.363,56349.329,65451.317,44720.7,54831.601,181092.448
3.52,09-20-2026 21:56:41:132,-261596.189,-137986.662,65484.353,54812.155,61644.502,35949.875,44019.526,229479.504
3.524,09-20-2026 21:56:41:136,-267133.208,-121439.218,69942.185,55487.58,51574.862,37704.04,42456.334,230359.269
3.528,09-20-2026 21:56:41:140,-278342.295,-207279.081,83315.68,57117.916,49855.655,46124.032,50663.09,160857.861
3.532,09-20-2026 21:56:41:144,-278747.443,-252784.551,89073.713,57746.76,58820.091,50801.805,59000.112,119508.921
3.536,09-20-2026 21:56:41:148,-277937.147,-238305.537,78672.106,56349.329,65451.317,44837.644,54961.867,181092.448
3.54,09-20-2026 21:56:41:152,-261866.288,-137986.662,65484.353,54788.864,61644.502,35949.875,44019.526,229479.504
3.544,09-20-2026 21:56:41:156,-267268.257,-121439.218,69942.185,55464.289,51574.862,37704.04,42456.334,230359.269
3.548,09-20-2026 21:56:41:160,-278342.295,-207279.081,83129.937,57094.625,49855.655,46124.032,50663.09,160857.861
3.552,09-20-2026 21:56:41:164,-278747.443,-252784.551,89073.713,57746.76,58820.091,50801.805,59000.112,118629.157
3.556,09-20-2026 21:56:41:168,-277802.098,-238305.537,78486.363,56349.329,65451.317,44837.644,54831.601,180212.683
3.56,09-20-2026 21:56:41:172,-261596.189,-137986.662,65484.353,54788.864,61644.502,35949.875,44019.526,229479.504
3.564,09-20-2026 21:56:41:176,-267133.208,-121439.218,69942.185,55464.289,51574.862,37704.04,42456.334,230359.269
3.568,09-20-2026 21:56:41:180,-278342.295,-207279.081,83129.937,57094.625,49855.655,46007.087,50663.09,160857.861
3.572,09-20-2026 21:56:41:184,-278747.443,-252784.551,89073.713,57746.76,58820.091,50801.805,59000.112,118629.157
3.576,09-20-2026 21:56:41:188,-277802.098,-238305.537,78486.363,56349.329,65451.317,44837.644,54831.601,180212.683
3.58,09-20-2026 21:56:41:192,-261731.239,-137986.662,65484.353,54788.864,61644.502,35949.875,44019.526,229479.504
3.584,09-20-2026 21:56:41:196,-267268.257,-121439.218,69942.185,55464.289,51574.862,37704.04,42456.334,230359.269
3.588,09-20-2026 21:56:41:200,-278342.295,-207279.081,83129.937,57094.625,49855.655,46124.032,50663.09,159978.096
3.592,09-20-2026 21:56:41:204,-278747.443,-252784.551,89073.713,57746.76,58820.091,50801.805,59000.112,118629.157
3.596,09-20-2026 21:56:41:208,-277937.147,-238305.537,78486.363,56349.329,65451.317,44837.644,54831.601,180212.683
3.6,09-20-2026 21:56:41:212,-261731.239,-137986.662,65484.353,54788.864,61644.502,35949.875,44019.526,229479.504
3.604,09-20-2026 21:56:41:216,-267074.602,-121323.704,69942.721,55460.132,51613.262,37708.019,42437.067,230068.562
3.608,09-20-2026 21:56:41:220,-278324.861,-207226.644,83130.474,57084.21,49897.185,46011.066,50632.557,159440.626
3.612,09-20-2026 21:56:41:224,-278726.656,-252765.552,89074.25,57733.841,58722.727,50805.783,58958.135,117946.713
3.616,09-20-2026 21:56:41:228,-277923.066,-238275.899,78486.899,56341.774,65464.46,44841.623,54925.433,179746.157
3.62,09-20-2026 21:56:41:232,-261717.336,-137883.307,65484.889,54787.3,61664.574,35953.854,43998.113,229185.713
3.624,09-20-2026 21:56:41:236,-267208.534,-121323.704,69942.721,55460.132,51613.262,37708.019,42437.067,230068.562
3.628,09-20-2026 21:56:41:240,-278324.861,-207226.644,83130.474,57084.21,49897.185,46011.066,50632.557,160323.475
3.632,09-20-2026 21:56:41:244,-278726.656,-252765.552,89074.25,57710.64,58722.727,50805.783,58958.135,117946.713
3.636,09-20-2026 21:56:41:248,-277789.134,-238275.899,78486.899,56341.774,65464.46,44841.623,54925.433,179746.157
3.64,09-20-2026 21:56:41:252,-261717.336,-137883.307,65484.889,54787.3,61664.574,35953.854,43998.113,230068.562
3.644,09-20-2026 21:56:41:256,-267074.602,-121323.704,69942.721,55460.132,51613.262,37708.019,42437.067,230068.562
3.648,09-20-2026 21:56:41:260,-278324.861,-207226.644,83130.474,57084.21,49897.185,46011.066,50632.557,159440.626
3.652,09-20-2026 21:56:41:264,-278726.656,-252765.552,89074.25,57733.841,58845.304,50805.783,58958.135,117946.713
3.656,09-20-2026 21:56:41:268,-277923.066,-238275.899,78672.642,56341.774,65464.46,44841.623,54925.433,179746.157
3.66,09-20-2026 21:56:41:272,-261717.336,-138918.282,65484.889,54787.3,61664.574,35953.854,43998.113,229185.713
3.664,09-20-2026 21:56:41:276,-267074.602,-121323.704,69942.721,55460.132,51613.262,37708.019,42437.067,230068.562
3.668,09-20-2026 21:56:41:280,-278324.861,-207226.644,83130.474,57084.21,49897.185,46011.066,50632.557,159440.626
3.672,09-20-2026 21:56:41:284,-278726.656,-252765.552,89074.25,57733.841,58722.727,50805.783,58958.135,117946.713
3.676,09-20-2026 21:56:41:288,-277923.066,-238275.899,78672.642,56341.774,65464.46,44841.623,54925.433,179746.157
3.68,09-20-2026 21:56:41:292,-261851.267,-138918.282,65484.889,54787.3,61664.574,35953.854,43998.113,229185.713
3.684,09-20-2026 21:56:41:296,-267074.602,-121323.704,69942.721,55460.132,51735.839,37708.019,42437.067,230068.562
3.688,09-20-2026 21:56:41:300,-278324.861,-207226.644,83130.474,57084.21,49897.185,46011.066,50632.557,160323.475
3.692,09-20-2026 21:56:41:304,-278726.656,-252765.552,89074.25,57733.841,58722.727,50805.783,58958.135,117946.713
3.696,09-20-2026 21:56:41:308,-277923.066,-238275.899,78672.642,56341.774,65464.46,44841.623,54925.433,179746.157
3.7,09-20-2026 21:56:41:312,-261717.336,-138918.282,65484.889,54787.3,61664.574,35953.854,43998.113,229185.713
3.704,09-20-2026 21:56:41:316,-267093.02,-120833.083,69946.834,55456.69,51665.119,37739.222,42375.287,230170.799
3.708,09-20-2026 21:56:41:320,-278298.217,-207018.013,83115.543,57071.38,49954.048,46023.225,50593.308,159839.47
3.712,09-20-2026 21:56:41:324,-278698.403,-252706.409,89050.736,57717.256,58753.84,50806.946,58941.774,117106.511
3.716,09-20-2026 21:56:41:328,-277898.032,-238169.192,78664.148,56333.236,65475.904,44856.464,54897.985,179425.41
3.72,09-20-2026 21:56:41:332,-261757.211,-138485.418,65495.439,54787.747,61687.104,35989.08,43940.624,229280.529
3.724,09-20-2026 21:56:41:336,-266959.625,-120833.083,69946.834,55456.69,51665.119,37739.222,42375.287,230170.799
3.728,09-20-2026 21:56:41:340,-278298.217,-207018.013,83115.543,57071.38,49954.048,46023.225,50593.308,158949.2
3.732,09-20-2026 21:56:41:344,-278698.403,-252706.409,89050.736,57717.256,58876.06,50806.946,58941.774,117106.511
3.736,09-20-2026 21:56:41:348,-277898.032,-239207.564,78664.148,56333.236,65475.904,44856.464,54897.985,178535.14
3.74,09-20-2026 21:56:41:352,-261890.607,-139523.791,65495.439,54787.747,61687.104,35989.08,44071.069,229280.529
3.744,09-20-2026 21:56:41:356,-267093.02,-120833.083,69761.359,55433.623,51787.338,37739.222,42375.287,230170.799
3.748,09-20-2026 21:56:41:360,-278298.217,-207018.013,82930.068,57048.313,49954.048,46023.225,50593.308,159839.47
3.752,09-20-2026 21:56:41:364,-278698.403,-252706.409,89050.736,57694.189,58753.84,50806.946,58941.774,117106.511
3.756,09-20-2026 21:56:41:368,-277898.032,-239207.564,78664.148,56333.236,65475.904,44856.464,54897.985,179425.41
3.76,09-20-2026 21:56:41:372,-261890.607,-139523.791,65495.439,54787.747,61687.104,35989.08,44071.069,229280.529
3.764,09-20-2026 21:56:41:376,-266826.229,-120833.083,69761.359,55433.623,51787.338,37622.546,42375.287,230170.799
3.768,09-20-2026 21:56:41:380,-278298.217,-207018.013,83115.543,57048.313,49954.048,46023.225,50462.863,159839.47
3.772,09-20-2026 21:56:41:384,-278698.403,-252706.409,89050.736,57694.189,58753.84,50806.946,58941.774,117106.511
3.776,09-20-2026 21:56:41:388,-277898.032,-239207.564,78664.148,56333.236,65475.904,44856.464,54897.985,179425.41
3.78,09-20-2026 21:56:41:392,-261890.607,-139523.791,65495.439,54787.747,61809.324,35989.08,44071.069,229280.529
3.784,09-20-2026 21:56:41:396,-266826.229,-120833.083,69761.359,55433.623,51787.338,37622.546,42375.287,230170.799
3.788,09-20-2026 21:56:41:400,-278298.217,-205979.64,83115.543,57048.313,49954.048,46023.225,50462.863,159839.47
3.792,09-20-2026 21:56:41:404,-278698.403,-252706.409,89050.736,57694.189,58753.84,50806.946,58941.774,117106.511
3.796,09-20-2026 21:56:41:408,-277764.637,-238169.192,78478.674,56333.236,65475.904,44856.464,54767.541,179425.41
3.8,09-20-2026 21:56:41:412,-261757.211,-138485.418,65495.439,54787.747,61687.104,35989.08,43940.624,229280.529
3.804,09-20-2026 21:56:41:416,-266973.751,-120954.006,69759.571,55426.604,51711.61,37739.311,42344.843,230360.699
3.808,09-20-2026 21:56:41:420,-278278.146,-207035.045,83113.755,57035.036,50005.546,46026.489,50560.048,160068.218
3.812,09-20-2026 21:56:41:424,-278677.124,-252668.366,89048.948,57701.386,58779.589,50812.042,58905.653,117358.862
3.816,09-20-2026 21:56:41:428,-277879.167,-238148.673,78662.36,56322.73,65481.983,44859.281,54863.251,178753.561
3.82,09-20-2026 21:56:41:432,-261787.029,-138585.062,65493.651,54783.232,61704.27,35988.499,43909.644,229470.921
3.824,09-20-2026 21:56:41:436,-267106.744,-120954.006,69759.571,55426.604,51711.61,37739.311,42344.843,230360.699
3.828,09-20-2026 21:56:41:440,-278278.146,-207035.045,83113.755,57035.036,50005.546,46026.489,50560.048,160068.218
3.832,09-20-2026 21:56:41:444,-278677.124,-252668.366,89048.948,57701.386,58779.589,50812.042,58905.653,117358.862
3.836,09-20-2026 21:56:41:448,-277879.167,-239185.794,78662.36,56322.73,65481.983,44859.281,54863.251,178753.561
3.84,09-20-2026 21:56:41:452,-261787.029,-139622.183,65493.651,54783.232,61704.27,35988.499,44040.044,229470.921
3.844,09-20-2026 21:56:41:456,-266840.758,-120954.006,69759.571,55426.604,51711.61,37622.59,42344.843,230360.699
3.848,09-20-2026 21:56:41:460,-278278.146,-207035.045,83113.755,57035.036,50005.546,46026.489,50560.048,160068.218
3.852,09-20-2026 21:56:41:464,-278677.124,-252668.366,89048.948,57701.386,58779.589,50812.042,58905.653,117358.862
3.856,09-20-2026 21:56:41:468,-277879.167,-239185.794,78662.36,56345.708,65481.983,44859.281,54863.251,178753.561
3.86,09-20-2026 21:56:41:472,-262053.014,-139622.183,65493.651,54783.232,61826.132,35988.499,44040.044,229470.921
3.864,09-20-2026 21:56:41:476,-266973.751,-120954.006,69759.571,55403.627,51833.472,37622.59,42344.843,230360.699
3.868,09-20-2026 21:56:41:480,-278278.146,-205997.924,82928.28,57012.058,50005.546,45909.768,50429.648,160957.996
3.872,09-20-2026 21:56:41:484,-278677.124,-252668.366,89048.948,57655.431,58779.589,50812.042,58905.653,118248.641
3.876,09-20-2026 21:56:41:488,-277879.167,-239185.794,78662.36,56299.753,65481.983,44859.281,54863.251,179643.339
3.88,09-20-2026 21:56:41:492,-261920.021,-139622.183,65493.651,54783.232,61704.27,35988.499,44040.044,229470.921
3.884,09-20-2026 21:56:41:496,-266973.751,-120954.006,69759.571,55426.604,51833.472,37622.59,42344.843,230360.699
3.888,09-20-2026 21:56:41:500,-278278.146,-205997.924,82928.28,57012.058,50005.546,45909.768,50429.648,160957.996
3.892,09-20-2026 21:56:41:504,-278677.124,-252668.366,89048.948,57678.408,58779.589,50812.042,58905.653,118248.641
3.896,09-20-2026 21:56:41:508,-277879.167,-239185.794,78662.36,56322.73,65481.983,44976.001,54863.251,179643.339
3.9,09-20-2026 21:56:41:512,-262053.014,-139622.183,65493.651,54783.232,61826.132,35988.499,44040.044,229470.921
3.904,09-20-2026 21:56:41:516,-266953.5,-120650.38,69807.851,55410.109,51833.74,37636.717,42311.405,230300.037
3.908,09-20-2026 21:56:41:520,-278271.708,-205859.254,82922.603,57022.474,50009.167,45888.981,50512.528,160754.372
3.912,09-20-2026 21:56:41:524,-278666.529,-252620.22,89018.192,57658.336,58767.117,50770.602,58843.828,117957.04
3.916,09-20-2026 21:56:41:528,-277876.887,-239111.497,78674.162,56295.774,65457.218,44842.919,54938.532,179478.205
3.92,09-20-2026 21:56:41:532,-261952.431,-139354.767,65559.41,54774.246,61808.072,36009.51,44003.7,229408.426
3.924,09-20-2026 21:56:41:536,-266821.893,-120650.38,69807.851,55410.109,51833.74,37636.717,42311.405,230300.037
3.928,09-20-2026 21:56:41:540,-278271.708,-205859.254,82922.603,56999.765,50009.167,45888.981,50512.528,160754.372
3.932,09-20-2026 21:56:41:544,-278666.529,-252620.22,89018.192,57658.336,58767.117,50770.602,58843.828,117065.429
3.936,09-20-2026 21:56:41:548,-277876.887,-239111.497,78674.162,56318.484,65457.218,44842.919,54938.532,178586.594
3.94,09-20-2026 21:56:41:552,-261952.431,-140393.9,65559.41,54796.956,61808.072,36009.51,44003.7,229408.426
3.944,09-20-2026 21:56:41:556,-266953.5,-120650.38,69807.851,55410.109,51833.74,37636.717,42311.405,230300.037
3.948,09-20-2026 21:56:41:560,-278271.708,-205859.254,82922.603,56999.765,50009.167,45888.981,50512.528,160754.372
3.952,09-20-2026 21:56:41:564,-278666.529,-252620.22,89018.192,57658.336,58767.117,50770.602,58843.828,117065.429
3.956,09-20-2026 21:56:41:568,-277876.887,-239111.497,78674.162,56318.484,65457.218,44959.148,54938.532,178586.594
3.96,09-20-2026 21:56:41:572,-261952.431,-140393.9,65559.41,54774.246,61808.072,36009.51,44003.7,229408.426
3.964,09-20-2026 21:56:41:576,-266821.893,-120650.38,69623.136,55410.109,51833.74,37636.717,42311.405,230300.037
3.968,09-20-2026 21:56:41:580,-278271.708,-205859.254,82922.603,56999.765,50009.167,45888.981,50382.352,160754.372
3.972,09-20-2026 21:56:41:584,-278666.529,-252620.22,89018.192,57658.336,58767.117,50770.602,58843.828,117065.429
3.976,09-20-2026 21:56:41:588,-277876.887,-239111.497,78674.162,56318.484,65457.218,44959.148,54938.532,178586.594
3.98,09-20-2026 21:56:41:592,-262084.039,-140393.9,65559.41,54796.956,61808.072,36009.51,44003.7,229408.426
3.984,09-20-2026 21:56:41:596,-266690.286,-120650.38,69807.851,55410.109,51833.74,37636.717,42311.405,230300.037
3.988,09-20-2026 21:56:41:600,-278271.708,-205859.254,82922.603,56999.765,50009.167,45888.981,50382.352,160754.372
3.992,09-20-2026 21:56:41:604,-278666.529,-252620.22,89018.192,57658.336,58767.117,50770.602,58843.828,117065.429
3.996,09-20-2026 21:56:41:608,-277876.887,-239111.497,78674.162,56318.484,65457.218,44842.919,54938.532,178586.594
4,09-20-2026 21:56:41:612,-261952.431,-139354.767,65559.41,54774.246,61808.072,36009.51,44003.7,229408.426
4.004,09-20-2026 21:56:41:616,-266836.645,-120716.184,69807.404,55425.263,51844.156,37620.221,42326.336,230489.132
4.008,09-20-2026 21:56:41:620,-278254.81,-205862.74,82947.547,57008.661,50020.254,45869.311,50388.968,161128.272
4.012,09-20-2026 21:56:41:624,-278653.118,-252589.509,89054.938,57664.64,58774.985,50749.055,58841.727,117555.424
4.016,09-20-2026 21:56:41:628,-277856.502,-239090.665,78690.881,56307.442,65462.627,44823.652,54940.454,178913.108
4.02,09-20-2026 21:56:41:632,-261924.179,-139406.891,65550.737,54791.904,61814.822,35993.64,44016.888,229599.891
4.024,09-20-2026 21:56:41:636,-266836.645,-120716.184,69807.404,55402.643,51844.156,37620.221,42326.336,230489.132
4.028,09-20-2026 21:56:41:640,-278254.81,-205862.74,82947.547,57008.661,50020.254,45869.311,50388.968,161128.272
4.032,09-20-2026 21:56:41:644,-278653.118,-252589.509,89054.938,57664.64,58774.985,50749.055,58841.727,117555.424
4.036,09-20-2026 21:56:41:648,-277856.502,-239090.665,78690.881,56307.442,65462.627,44939.836,54940.454,178913.108
4.04,09-20-2026 21:56:41:652,-262056.948,-140445.264,65550.737,54791.904,61814.822,35993.64,44016.888,228710.649
4.044,09-20-2026 21:56:41:656,-266836.645,-120716.184,69807.404,55425.263,51844.156,37620.221,42326.336,230489.132
4.048,09-20-2026 21:56:41:660,-278254.81,-205862.74,82947.547,57008.661,50020.254,45869.311,50388.968,161128.272
4.052,09-20-2026 21:56:41:664,-278653.118,-252589.509,89054.938,57664.64,58774.985,50749.055,58841.727,117555.424
4.056,09-20-2026 21:56:41:668,-277856.502,-240129.038,78875.953,56330.062,65462.627,44939.836,54940.454,178913.108
4.06,09-20-2026 21:56:41:672,-262322.487,-140445.264,65550.737,54814.524,61936.416,35993.64,44146.93,228710.649
4.064,09-20-2026 21:56:41:676,-266836.645,-120716.184,69622.331,55425.263,51844.156,37620.221,42326.336,230489.132
4.068,09-20-2026 21:56:41:680,-278254.81,-205862.74,82947.547,57008.661,50020.254,45869.311,50388.968,162017.514
4.072,09-20-2026 21:56:41:684,-278653.118,-252589.509,89054.938,57664.64,58774.985,50749.055,58841.727,117555.424
4.076,09-20-2026 21:56:41:688,-277856.502,-239090.665,78690.881,56330.062,65462.627,44823.652,54940.454,179802.35
4.08,09-20-2026 21:56:41:692,-261791.409,-139406.891,65550.737,54814.524,61814.822,35993.64,44016.888,229599.891
4.084,09-20-2026 21:56:41:696,-266703.876,-120716.184,69807.404,55447.883,51844.156,37620.221,42326.336,230489.132
4.088,09-20-2026 21:56:41:700,-278254.81,-205862.74,82947.547,57008.661,50020.254,45869.311,50388.968,162017.514
4.092,09-20-2026 21:56:41:704,-278653.118,-252589.509,89054.938,57664.64,58774.985,50749.055,58841.727,118444.665
4.096,09-20-2026 21:56:41:708,-277856.502,-239090.665,78690.881,56330.062,65462.627,44939.836,54940.454,178913.108
4.1,09-20-2026 21:56:41:712,-262056.948,-140445.264,65550.737,54814.524,61814.822,35993.64,44016.888,229599.891
4.104,09-20-2026 21:56:41:716,-266855.376,-120434.552,69659.927,55444.799,51816.976,37655.76,42271.127,230738.354
4.108,09-20-2026 21:56:41:720,-278246.853,-205738.733,82952.956,57009.421,49993.074,45879.459,50353.161,162109.737
4.112,09-20-2026 21:56:41:724,-278639.663,-252552.003,89045.595,57657.621,58747.805,50744.182,58826.26,118996.888
4.116,09-20-2026 21:56:41:728,-277854.044,-239028.169,78706.572,56316.517,65435.447,44952.845,54915.599,179706.818
4.12,09-20-2026 21:56:41:732,-262141.661,-140200.155,65598.168,54818.95,61787.642,36034.186,44096.103,228978.646
4.124,09-20-2026 21:56:41:736,-266724.439,-120434.552,69659.927,55422.447,51816.976,37539.934,42271.127,230738.354
4.128,09-20-2026 21:56:41:740,-278246.853,-205738.733,82768.331,57009.421,49993.074,45763.632,50353.161,162989.591
4.132,09-20-2026 21:56:41:744,-278639.663,-252552.003,89045.595,57657.621,58747.805,50744.182,58826.26,118996.888
4.136,09-20-2026 21:56:41:748,-277854.044,-239028.169,78891.197,56338.868,65435.447,44952.845,54915.599,179706.818
4.14,09-20-2026 21:56:41:752,-262010.725,-140200.155,65598.168,54818.95,61787.642,36034.186,44096.103,228978.646
4.144,09-20-2026 21:56:41:756,-266855.376,-120434.552,69659.927,55422.447,51816.976,37539.934,42271.127,230738.354
4.148,09-20-2026 21:56:41:760,-278246.853,-205738.733,82768.331,56987.069,49993.074,45763.632,50353.161,162989.591
4.152,09-20-2026 21:56:41:764,-278639.663,-252552.003,89045.595,57657.621,58747.805,50744.182,58826.26,118996.888
4.156,09-20-2026 21:56:41:768,-277854.044,-240068.464,78891.197,56338.868,65435.447,44952.845,54915.599,179706.818
4.16,09-20-2026 21:56:41:772,-262141.661,-141240.45,65598.168,54818.95,61909.236,36034.186,44096.103,228978.646
4.164,09-20-2026 21:56:41:776,-266593.503,-120434.552,69659.927,55422.447,51816.976,37539.934,42271.127,230738.354
4.168,09-20-2026 21:56:41:780,-278115.917,-205738.733,82768.331,56987.069,49993.074,45763.632,50353.161,162989.591
