PseudoTimeSec,PseudoTimestamp,UF-FP1,UF-FP2,UF-O1,UF-O2,UF-C3,UF-CZ,UF-FZ,UF-C4
0.004,09-22-2026 21:13:20:652,-101615.769,157046.128,157313.634,49926.466,117060.556,-12931.378,-144938.814,60172.282
0.008,09-22-2026 21:13:20:656,-135773.66,150599.438,150866.944,104218.898,95004.078,21195.131,-177923.641,101423.857
0.012,09-22-2026 21:13:20:660,-137782.948,150071.982,150339.487,87546.419,100214.27,8028.21,-179286.65,89730.497
0.016,09-22-2026 21:13:20:664,-117403.029,153939.996,154207.501,54628.96,113413.422,-12393.953,-164838.751,65044.515
0.02,09-22-2026 21:13:20:668,-101902.81,157046.128,157313.634,49926.466,116886.883,-12931.378,-145211.416,60172.282
0.024,09-22-2026 21:13:20:672,-113958.536,154936.302,155203.808,80706.427,105250.788,7759.497,-159659.315,82909.37
0.028,09-22-2026 21:13:20:676,-136060.701,150658.044,150925.55,104218.898,95004.078,21195.131,-177923.641,101423.857
0.032,09-22-2026 21:13:20:680,-137495.907,150189.194,150456.7,86691.42,100387.943,7490.785,-179559.252,89405.681
0.036,09-22-2026 21:13:20:684,-116828.947,154115.814,154383.32,54201.46,113587.095,-12662.666,-164566.149,64719.7
0.04,09-22-2026 21:13:20:688,-101615.769,157221.947,157489.453,49926.466,116886.883,-12931.378,-144938.814,60172.282
0.044,09-22-2026 21:13:20:692,-113384.454,155112.121,155379.627,80706.427,105250.788,7759.497,-159659.315,82584.555
0.048,09-22-2026 21:13:20:696,-135773.66,150775.257,151042.763,104218.898,95004.078,21195.131,-178196.243,101423.857
0.052,09-22-2026 21:13:20:700,-137208.866,150306.407,150573.912,87118.919,100387.943,7759.497,-179559.252,89405.681
0.056,09-22-2026 21:13:20:704,-116828.947,154233.027,154500.533,54628.96,113587.095,-12662.666,-164566.149,64719.7
0.06,09-22-2026 21:13:20:708,-101328.728,157339.16,157606.665,49926.466,117060.556,-12931.378,-145211.416,60172.282
0.064,09-22-2026 21:13:20:712,-113384.454,155170.727,155438.233,80706.427,105424.461,7759.497,-159659.315,82584.555
0.068,09-22-2026 21:13:20:716,-135773.66,150892.469,151159.975,104218.898,95004.078,21195.131,-178196.243,101423.857
0.072,09-22-2026 21:13:20:720,-137208.866,150423.619,150691.125,87118.919,100387.943,7759.497,-179559.252,89405.681
0.07600001,09-22-2026 21:13:20:724,-116541.906,154350.24,154617.745,54628.96,113587.095,-12662.666,-164566.149,64719.7
0.08000001,09-22-2026 21:13:20:728,-101328.728,157456.372,157723.878,49926.466,117060.556,-12931.378,-144938.814,60497.097
0.08400001,09-22-2026 21:13:20:732,-113384.454,155287.94,155555.446,80706.427,105424.461,7759.497,-159386.713,82909.37
0.08800001,09-22-2026 21:13:20:736,-135486.619,151009.682,151218.581,104218.898,95004.078,21195.131,-178196.243,101423.857
0.09200001,09-22-2026 21:13:20:740,-137208.866,150540.832,150808.337,87118.919,100214.27,7759.497,-179559.252,89405.681
0.096,09-22-2026 21:13:20:744,-116541.906,154467.452,154734.958,54201.46,113587.095,-12662.666,-164293.547,64719.7
0.1,09-22-2026 21:13:20:748,-101328.728,157514.978,157782.484,49926.466,117060.556,-12931.378,-144938.814,60172.282
0.104,09-22-2026 21:13:20:752,-113299.383,155419.994,155687.768,80658.997,105449.317,7931.964,-159378.935,82559.655
0.108,09-22-2026 21:13:20:756,-135437.535,151074.815,151342.589,104247.687,94772.246,21367.597,-178245.283,101173.517
0.112,09-22-2026 21:13:20:760,-136856.647,150669.265,150937.039,86663.391,100110.781,7663.251,-179653.219,89090.835
0.116,09-22-2026 21:13:20:764,-116421.43,154550.958,154818.732,54068.11,113753.705,-12490.2,-164165.919,64272.352
0.12,09-22-2026 21:13:20:768,-101095.018,157679.487,157947.261,49779.257,117510.452,-12758.912,-144736.397,60027.085
0.124,09-22-2026 21:13:20:772,-113015.561,155535.865,155803.639,80658.997,105449.317,7931.964,-159378.935,82559.655
0.128,09-22-2026 21:13:20:776,-135437.535,151190.686,151458.46,104247.687,94574.522,21367.597,-178526.87,101173.517
0.132,09-22-2026 21:13:20:780,-136856.647,150785.136,151052.91,86663.391,99913.058,7663.251,-179934.806,89090.835
0.136,09-22-2026 21:13:20:784,-116137.608,154666.83,154934.604,54068.11,113951.428,-12490.2,-164447.506,64598.911
0.14,09-22-2026 21:13:20:788,-100811.195,157795.359,158063.133,49779.257,117905.899,-12758.912,-144736.397,60027.085
0.144,09-22-2026 21:13:20:792,-112731.738,155651.737,155919.511,80658.997,105647.04,7931.964,-159660.522,82559.655
0.148,09-22-2026 21:13:20:796,-135153.712,151306.558,151574.332,104247.687,94376.799,21367.597,-178526.87,101500.076
0.152,09-22-2026 21:13:20:800,-136856.647,150843.072,151110.846,86663.391,99913.058,7931.964,-180216.393,89417.394
0.156,09-22-2026 21:13:20:804,-116137.608,154782.701,155050.475,54068.11,114346.875,-12490.2,-164729.093,64598.911
0.16,09-22-2026 21:13:20:808,-100811.195,157911.23,158179.004,49779.257,118301.346,-12758.912,-144736.397,60027.085
0.164,09-22-2026 21:13:20:812,-112731.738,155767.608,156035.382,80658.997,105844.764,7931.964,-159660.522,82886.214
0.168,09-22-2026 21:13:20:816,-135153.712,151422.429,151690.203,104247.687,94179.075,21367.597,-178808.457,101500.076
0.172,09-22-2026 21:13:20:820,-136856.647,150958.943,151226.717,87092.276,99517.611,7931.964,-180497.981,89743.953
0.176,09-22-2026 21:13:20:824,-116137.608,154898.573,155166.346,54496.995,114544.599,-12221.487,-165010.681,64598.911
0.18,09-22-2026 21:13:20:828,-100811.195,157969.166,158236.94,49779.257,118894.517,-12758.912,-145299.571,60027.085
0.184,09-22-2026 21:13:20:832,-112731.738,155825.544,156093.318,80658.997,106042.487,7931.964,-160223.697,82886.214
0.188,09-22-2026 21:13:20:836,-135153.712,151480.365,151748.139,104247.687,93981.352,21367.597,-179090.044,101500.076
0.192,09-22-2026 21:13:20:840,-136856.647,151016.879,151284.653,87092.276,99319.887,7931.964,-180497.981,89743.953
0.196,09-22-2026 21:13:20:844,-116137.608,154956.508,155224.282,54496.995,114544.599,-12221.487,-165855.442,64925.47
0.2,09-22-2026 21:13:20:848,-100811.195,158027.102,158294.875,49779.257,119092.24,-12758.912,-145862.746,60027.085
0.204,09-22-2026 21:13:20:852,-112866.564,155900.11,156167.883,80597.351,105941.725,7975.013,-160734.345,82747.454
0.208,09-22-2026 21:13:20:856,-135302.664,151575.047,151842.821,104269.636,93459.394,21446.409,-179334.125,101830.48
0.212,09-22-2026 21:13:20:860,-137006.672,151113.707,151381.481,87053.429,98843.929,7975.013,-180999.777,89656.826
0.216,09-22-2026 21:13:20:864,-116274.579,155035.097,155302.871,54342.634,114508.032,-12501.509,-166286.518,64980.5
0.22,09-22-2026 21:13:20:868,-100938.511,158149.142,158416.916,49608.177,119403.064,-12770.937,-146853.912,60374.252
0.224,09-22-2026 21:13:20:872,-112866.564,156015.445,156283.218,80597.351,106186.477,7975.013,-161567.171,82747.454
0.228,09-22-2026 21:13:20:876,-135302.664,151632.714,151900.488,104269.636,92969.891,21446.409,-179889.343,101830.48
0.232,09-22-2026 21:13:20:880,-137006.672,151171.374,151439.148,87053.429,98599.177,7975.013,-181277.386,89656.826
0.236,09-22-2026 21:13:20:884,-116274.579,155092.765,155360.538,54342.634,114997.535,-12501.509,-167119.344,64980.5
0.24,09-22-2026 21:13:20:888,-100938.511,158206.81,158474.583,49608.177,120382.07,-12770.937,-147409.129,60374.252
0.244,09-22-2026 21:13:20:892,-112866.564,156073.112,156340.886,80597.351,106431.229,7975.013,-162399.997,82747.454
0.248,09-22-2026 21:13:20:896,-135302.664,151748.049,151958.156,104269.636,92480.387,21446.409,-180166.951,101830.48
0.252,09-22-2026 21:13:20:900,-137006.672,151229.042,151496.816,87053.429,98109.674,7975.013,-181554.995,89985.843
0.256,09-22-2026 21:13:20:904,-116274.579,155150.432,155475.873,54342.634,115487.038,-12501.509,-167952.17,64980.5
0.26,09-22-2026 21:13:20:908,-100938.511,158322.145,158589.918,49608.177,121361.076,-12770.937,-148519.563,60703.27
0.264,09-22-2026 21:13:20:912,-112866.564,156188.447,156456.221,80166.945,106675.98,7975.013,-163510.431,83405.49
0.268,09-22-2026 21:13:20:916,-135302.664,151805.717,152073.491,104269.636,91746.133,21446.409,-180722.169,102159.497
0.272,09-22-2026 21:13:20:920,-137006.672,151286.709,151554.483,87053.429,97620.171,7975.013,-182110.212,90314.861
0.276,09-22-2026 21:13:20:924,-116274.579,155265.767,155533.541,54342.634,115976.541,-12501.509,-168784.996,65309.517
0.28,09-22-2026 21:13:20:928,-100938.511,158379.812,158647.586,49608.177,122095.331,-12770.937,-149352.389,60703.27
0.284,09-22-2026 21:13:20:932,-112866.564,156246.115,156513.888,80166.945,106920.732,7975.013,-164065.649,83405.49
0.288,09-22-2026 21:13:20:936,-135302.664,151863.384,152131.158,104269.636,91501.381,21446.409,-180999.777,102159.497
0.292,09-22-2026 21:13:20:940,-137006.672,151344.377,151612.151,87053.429,97375.419,7975.013,-182110.212,90314.861
0.296,09-22-2026 21:13:20:944,-116274.579,155323.435,155591.208,54342.634,116221.293,-12501.509,-169340.213,65309.517
0.3,09-22-2026 21:13:20:948,-100938.511,158437.48,158705.253,49608.177,122584.834,-12770.937,-149907.607,60703.27
0.304,09-22-2026 21:13:20:952,-112794.1,156330.381,156598.423,80221.797,107205.985,8088.47,-164908.488,83636.115
0.308,09-22-2026 21:13:20:956,-135368.11,151916,152184.043,104384.569,91040.846,21644.803,-181240.327,102435.988
0.312,09-22-2026 21:13:20:960,-137104.572,151463.244,151731.286,87125.446,96996.423,8088.47,-182536.505,90232.562
0.316,09-22-2026 21:13:20:964,-116267.024,155424.867,155692.909,53901.634,116564.75,-12517.156,-170093.199,65166.064
0.32,09-22-2026 21:13:20:968,-100928.274,158537.571,158805.613,49586.853,123371.124,-12788.282,-150909.77,60878.373
0.324,09-22-2026 21:13:20:972,-112794.1,156386.975,156655.017,80221.797,107205.985,8088.47,-165426.959,83636.115
0.328,09-22-2026 21:13:20:976,-135657.52,151972.595,152240.637,104384.569,90473.648,21644.803,-181758.798,102765.811
0.332,09-22-2026 21:13:20:980,-137104.572,151519.838,151787.88,87125.446,96429.225,8088.47,-182795.74,90892.207
0.336,09-22-2026 21:13:20:984,-116556.435,155424.867,155692.909,54333.112,116564.75,-12246.029,-170870.906,65825.709
0.34,09-22-2026 21:13:20:988,-100928.274,158594.165,158862.207,49586.853,124221.921,-12788.282,-151946.712,60878.373
0.344,09-22-2026 21:13:20:992,-113083.51,156443.57,156711.612,80653.275,107489.584,8088.47,-166723.137,83636.115
0.348,09-22-2026 21:13:20:996,-135657.52,152029.19,152297.232,104384.569,89906.45,21644.803,-182277.269,102765.811
0.352,09-22-2026 21:13:21:000,-137393.983,151519.838,151787.88,87125.446,95862.028,8088.47,-183314.211,90892.207
0.356,09-22-2026 21:13:21:004,-116556.435,155481.461,155749.503,54333.112,116564.75,-12517.156,-171907.848,65825.709
0.36,09-22-2026 21:13:21:008,-101217.684,158594.165,158862.207,49586.853,124505.52,-12788.282,-153502.125,61208.196
0.364,09-22-2026 21:13:21:012,-113083.51,156443.57,156711.612,80221.797,107489.584,8088.47,-167760.079,83636.115
0.368,09-22-2026 21:13:21:016,-135946.931,152085.784,152297.232,104384.569,89055.653,21644.803,-182536.505,102765.811
0.372,09-22-2026 21:13:21:020,-137683.393,151576.433,151844.475,87125.446,95294.83,8088.47,-183573.447,90892.207
0.376,09-22-2026 21:13:21:024,-116845.845,155481.461,155749.503,54333.112,116848.349,-12246.029,-172944.79,65825.709
0.38,09-22-2026 21:13:21:028,-101217.684,158650.76,158918.802,49586.853,124789.119,-12788.282,-154798.303,60878.373
0.384,09-22-2026 21:13:21:032,-113372.921,156500.164,156768.207,80653.275,107489.584,8088.47,-169056.257,83636.115
0.388,09-22-2026 21:13:21:036,-135946.931,152085.784,152353.826,104384.569,88772.054,21644.803,-183054.976,102765.811
0.392,09-22-2026 21:13:21:040,-137683.393,151576.433,151844.475,87125.446,94727.632,8088.47,-183832.682,90892.207
0.396,09-22-2026 21:13:21:044,-116845.845,155538.056,155806.098,54333.112,116564.75,-12517.156,-174240.968,65825.709
0.4,09-22-2026 21:13:21:048,-101507.095,158650.76,158918.802,49586.853,124789.119,-12788.282,-156612.951,60878.373
0.404,09-22-2026 21:13:21:052,-113544.314,156539.459,156811.703,80212.051,107184.259,7867.769,-170662.632,83643.312
0.408,09-22-2026 21:13:21:056,-136069.865,152103.8,152372.513,104414.878,87629.567,21553.742,-183629.103,102517.081
0.412,09-22-2026 21:13:21:060,-137825.103,151654.619,151922.974,87127.145,94040.941,8141.489,-184479.363,90596.806
0.416,09-22-2026 21:13:21:064,-117054.789,155584.95,155856.434,54280.451,116480.752,-12387.471,-175551.629,65431.781
0.42,09-22-2026 21:13:21:068,-101550.189,158729.215,159003.202,49526.325,125136.107,-13208.629,-158758.987,60796.119
0.424,09-22-2026 21:13:21:072,-113544.314,156539.459,156811.703,80644.245,106863.69,7867.769,-172363.153,83974.431
0.428,09-22-2026 21:13:21:076,-136362.405,152159.947,152428.705,104414.878,86988.43,21553.742,-184266.798,102517.081
0.432,09-22-2026 21:13:21:080,-138117.643,151654.619,151922.974,87127.145,93079.235,8141.489,-184691.928,90596.806
0.436,09-22-2026 21:13:21:084,-117347.329,155584.95,155856.434,54280.451,116160.183,-12661.19,-176827.02,65431.781
0.44,09-22-2026 21:13:21:088,-101550.189,158785.362,159003.202,49526.325,125136.107,-13208.629,-160672.073,60465
0.444,09-22-2026 21:13:21:092,-113544.314,156595.606,156867.895,80212.051,106543.122,7594.05,-173638.543,83312.194
0.448,09-22-2026 21:13:21:096,-136362.405,152216.095,152484.897,104414.878,86026.724,21553.742,-184691.928,102185.962
0.452,09-22-2026 21:13:21:100,-138117.643,151710.767,151979.167,87127.145,92438.098,7867.769,-185117.058,90265.687
0.456,09-22-2026 21:13:21:104,-117347.329,155641.098,155912.626,54280.451,115839.614,-12661.19,-177889.845,65431.781
0.46,09-22-2026 21:13:21:108,-101550.189,158785.362,159059.394,49526.325,125456.676,-13208.629,-162372.594,60465
0.464,09-22-2026 21:13:21:112,-113836.853,156595.606,156867.895,80644.245,106222.553,7594.05,-175339.064,83312.194
0.468,09-22-2026 21:13:21:116,-136654.945,152216.095,152484.897,104414.878,85385.586,21553.742,-185117.058,102185.962
0.472,09-22-2026 21:13:21:120,-138410.182,151710.767,151979.167,87127.145,91476.392,7867.769,-185542.188,90265.687
0.476,09-22-2026 21:13:21:124,-117639.869,155641.098,155912.626,54280.451,115839.614,-12661.19,-178740.105,65100.663
0.48,09-22-2026 21:13:21:128,-101842.728,158785.362,159059.394,49526.325,125456.676,-13208.629,-164073.114,60465
0.484,09-22-2026 21:13:21:132,-114129.393,156595.606,156867.895,80644.245,106222.553,7867.769,-176401.889,83312.194
0.488,09-22-2026 21:13:21:136,-136947.484,152216.095,152484.897,104414.878,84744.449,21553.742,-185542.188,102185.962
0.492,09-22-2026 21:13:21:140,-138702.722,151654.619,151922.974,87559.338,90835.254,7867.769,-185754.753,90265.687
0.496,09-22-2026 21:13:21:144,-117932.408,155641.098,155912.626,54280.451,115519.046,-12661.19,-179802.931,65431.781
0.5,09-22-2026 21:13:21:148,-102427.808,158785.362,159059.394,49526.325,125456.676,-13208.629,-165986.2,60465
0.504,09-22-2026 21:13:21:152,-114408.7,156609.867,156878.669,80497.751,105847.803,7719.488,-177416.525,82983.221
0.508,09-22-2026 21:13:21:156,-137575.479,152174.565,152443.368,104758.156,83837.951,21392.05,-185822.792,102255.52
0.512,09-22-2026 21:13:21:160,-139357.539,151605.937,151874.739,87429.295,90028.222,7992.939,-186128.475,90293.403
0.516,09-22-2026 21:13:21:164,-118566.84,155586.336,155855.138,54504.461,115133.21,-12789.355,-180626.19,65372.326
0.52,09-22-2026 21:13:21:168,-102825.311,158713.792,158982.594,49739.024,125106.424,-13336.258,-167481.845,60388.11
0.524,09-22-2026 21:13:21:172,-115002.72,156553.004,156821.806,80497.751,105503.9,7719.488,-178486.413,82983.221
0.528,09-22-2026 21:13:21:176,-137575.479,152117.703,152386.505,104758.156,83150.143,21392.05,-186128.475,101923.239
0.532,09-22-2026 21:13:21:180,-139654.549,151605.937,151874.739,87862.517,89340.414,7992.939,-186281.316,90293.403
0.536,09-22-2026 21:13:21:184,-118863.85,155529.473,155798.275,54504.461,114445.402,-12789.355,-181390.397,65040.045
0.54,09-22-2026 21:13:21:188,-103122.321,158713.792,158982.594,49739.024,124762.52,-13336.258,-169010.257,60055.829
0.544,09-22-2026 21:13:21:192,-115299.73,156553.004,156821.806,80497.751,104816.092,7446.037,-179403.461,82650.94
0.548,09-22-2026 21:13:21:196,-138169.499,152060.84,152329.642,104758.156,82462.336,21392.05,-186281.316,101923.239
0.552,09-22-2026 21:13:21:200,-139951.559,151549.074,151817.876,87429.295,88652.606,7992.939,-186586.998,89961.122
0.5560001,09-22-2026 21:13:21:204,-119160.86,155472.61,155741.412,54937.682,114101.498,-12789.355,-182001.761,65040.045
0.56,09-22-2026 21:13:21:208,-103419.331,158656.929,158925.731,49739.024,124418.616,-13336.258,-170538.669,60055.829
0.564,09-22-2026 21:13:21:212,-115596.74,156439.278,156708.08,80497.751,104472.188,7719.488,-180473.349,82650.94
0.568,09-22-2026 21:13:21:216,-138466.509,152060.84,152329.642,104758.156,81774.528,21392.05,-186586.998,101923.239
0.572,09-22-2026 21:13:21:220,-140248.569,151492.211,151761.013,87862.517,87964.799,7992.939,-186739.84,90293.403
0.576,09-22-2026 21:13:21:224,-119457.87,155472.61,155741.412,54504.461,113757.594,-12789.355,-182613.126,65040.045
0.58,09-22-2026 21:13:21:228,-103716.341,158600.066,158868.868,49739.024,124418.616,-13336.258,-171914.24,60388.11
0.5840001,09-22-2026 21:13:21:232,-115893.75,156439.278,156708.08,80497.751,104128.284,7446.037,-181237.555,83315.502
0.588,09-22-2026 21:13:21:236,-138763.519,152003.977,152272.779,104758.156,81430.624,21392.05,-186739.84,102255.52
0.592,09-22-2026 21:13:21:240,-140545.579,151492.211,151761.013,87862.517,87620.895,7992.939,-186892.681,90293.403
0.596,09-22-2026 21:13:21:244,-120051.89,155415.747,155684.549,54937.682,113413.69,-12789.355,-183071.65,65372.326
0.6,09-22-2026 21:13:21:248,-104013.351,158543.203,158812.005,49739.024,124074.712,-13336.258,-172984.129,60388.11
0.604,09-22-2026 21:13:21:252,-116362.869,156387.914,156657.253,80795.789,103703.154,7517.428,-181871.451,83223.412
0.608,09-22-2026 21:13:21:256,-139201.881,151963.073,152232.412,104694.275,80776.969,21292.808,-186954.774,102306.438
0.612,09-22-2026 21:13:21:260,-141251.536,151395.786,151665.124,87748.076,86773.048,8068.443,-187060.676,90461.801
0.6160001,09-22-2026 21:13:21:264,-120169.371,155366.797,155636.135,54724.715,112873.627,-12870.134,-183459.989,65456.458
0.62,09-22-2026 21:13:21:268,-104650.555,158486.877,158756.215,49510.5,123807.654,-13421.15,-174034.661,60850.21
0.624,09-22-2026 21:13:21:272,-116655.677,156331.185,156600.524,80361.272,103703.154,7517.428,-182295.061,83223.412
0.628,09-22-2026 21:13:21:276,-139494.689,151906.345,152175.683,104694.275,80424.259,21292.808,-187060.676,102306.438
0.632,09-22-2026 21:13:21:280,-141251.536,151395.786,151665.124,87748.076,86420.338,7792.936,-187166.579,90461.801
0.636,09-22-2026 21:13:21:284,-120462.179,155310.068,155579.407,54724.715,112520.917,-12594.627,-183777.697,65456.458
0.64,09-22-2026 21:13:21:288,-104943.362,158430.148,158699.487,49510.5,123807.654,-13421.15,-174881.881,60521.193
0.6440001,09-22-2026 21:13:21:292,-116948.484,156331.185,156600.524,80361.272,103350.443,7241.921,-182824.574,82894.395
0.648,09-22-2026 21:13:21:296,-139787.497,151849.616,152118.954,104694.275,79718.838,21292.808,-187166.579,102306.438
0.652,09-22-2026 21:13:21:300,-141544.344,151339.057,151608.396,87748.076,86067.627,7792.936,-187378.384,90461.801
0.656,09-22-2026 21:13:21:304,-120754.986,155253.339,155522.678,54724.715,112168.206,-12870.134,-183989.502,65456.458
0.66,09-22-2026 21:13:21:308,-104943.362,158430.148,158699.487,49510.5,123454.943,-13696.657,-175623.199,60521.193
0.664,09-22-2026 21:13:21:312,-116948.484,156274.457,156543.795,80361.272,102997.733,7241.921,-183354.087,83223.412
0.668,09-22-2026 21:13:21:316,-139787.497,151849.616,152118.954,104694.275,79366.127,21292.808,-187272.482,102306.438
0.6720001,09-22-2026 21:13:21:320,-141837.152,151282.329,151551.667,87748.076,85362.206,7792.936,-187378.384,90461.801
0.6760001,09-22-2026 21:13:21:324,-121047.794,155196.611,155465.949,54724.715,112168.206,-12870.134,-184307.21,65456.458
0.68,09-22-2026 21:13:21:328,-105236.17,158373.419,158642.758,49510.5,123454.943,-13696.657,-176258.615,60521.193
0.684,09-22-2026 21:13:21:332,-117241.292,156217.728,156487.066,80361.272,102645.022,7241.921,-183565.892,82894.395
0.688,09-22-2026 21:13:21:336,-140080.305,151792.887,152062.226,104694.275,79013.417,21292.808,-187378.384,102306.438
0.692,09-22-2026 21:13:21:340,-141837.152,151282.329,151551.667,87748.076,85009.496,7792.936,-187484.287,90461.801
0.696,09-22-2026 21:13:21:344,-121340.602,155196.611,155465.949,54724.715,111815.496,-12870.134,-184519.015,65456.458
0.7,09-22-2026 21:13:21:348,-105236.17,158373.419,158642.758,49510.5,123454.943,-13696.657,-176999.933,60521.193
0.7040001,09-22-2026 21:13:21:352,-117356.493,156229.127,156498.555,80010.751,102359.098,7128.418,-184030.942,83063.597
0.708,09-22-2026 21:13:21:356,-140083.926,151779.342,152048.77,104328.734,78380.952,20906.034,-187555.723,102058.468
0.712,09-22-2026 21:13:21:360,-142123.567,151216.078,151485.506,87827.246,84557.141,7679.523,-187635.832,90596.046
0.716,09-22-2026 21:13:21:364,-121144.399,155158.926,155428.354,54390.02,111805.035,-12986.9,-184912.137,65378.718
0.72,09-22-2026 21:13:21:368,-105701.4,158313.204,158582.632,49179.023,123067.498,-13813.557,-177942.685,60466.252
0.724,09-22-2026 21:13:21:372,-117356.493,156172.801,156442.229,80010.751,102359.098,6852.866,-184431.485,82736.1
0.728,09-22-2026 21:13:21:376,-140375.303,151779.342,152048.77,104328.734,78017.646,20906.034,-187635.832,102058.468
0.7320001,09-22-2026 21:13:21:380,-142123.567,151216.078,151485.506,87392.996,84193.836,7679.523,-187796.049,90596.046
0.7360001,09-22-2026 21:13:21:384,-121435.776,155158.926,155428.354,54390.02,111441.73,-12986.9,-185072.355,65706.216
0.74,09-22-2026 21:13:21:388,-105701.4,158313.204,158582.632,49179.023,123067.498,-14089.109,-178343.228,60466.252
0.744,09-22-2026 21:13:21:392,-117647.87,156172.801,156442.229,80010.751,101995.793,6852.866,-184671.811,83063.597
0.748,09-22-2026 21:13:21:396,-140375.303,151779.342,152048.77,104328.734,77654.341,20906.034,-187796.049,102058.468
0.752,09-22-2026 21:13:21:400,-142414.944,151159.752,151429.179,87392.996,83467.225,7679.523,-187956.266,90596.046
0.756,09-22-2026 21:13:21:404,-121727.153,155102.599,155428.354,54390.02,111078.425,-13262.452,-185472.898,65706.216
0.7600001,09-22-2026 21:13:21:408,-105701.4,158313.204,158582.632,49179.023,123067.498,-14089.109,-179224.423,60466.252
0.7640001,09-22-2026 21:13:21:412,-117647.87,156172.801,156442.229,80010.751,101995.793,6852.866,-184992.246,83063.597
0.768,09-22-2026 21:13:21:416,-140666.68,151723.016,151992.443,104328.734,76927.731,20906.034,-187876.158,102058.468
0.772,09-22-2026 21:13:21:420,-142706.322,151159.752,151429.179,87392.996,83103.92,7403.971,-188036.375,90596.046
0.776,09-22-2026 21:13:21:424,-121727.153,155102.599,155372.027,54390.02,110715.119,-13262.452,-185633.115,65706.216
0.78,09-22-2026 21:13:21:428,-105992.777,158313.204,158582.632,49179.023,123067.498,-14089.109,-179705.075,60466.252
0.784,09-22-2026 21:13:21:432,-117939.248,156116.474,156385.902,80010.751,101995.793,6852.866,-185312.681,82736.1
0.788,09-22-2026 21:13:21:436,-140666.68,151723.016,151992.443,104328.734,76927.731,20906.034,-188036.375,102058.468
0.7920001,09-22-2026 21:13:21:440,-142706.322,151159.752,151429.179,87392.996,82740.615,7679.523,-188116.483,90596.046
0.7960001,09-22-2026 21:13:21:444,-122018.531,155102.599,155372.027,54390.02,110715.119,-13262.452,-185873.441,65378.718
0.8,09-22-2026 21:13:21:448,-105992.777,158313.204,158582.632,49179.023,123067.498,-14089.109,-180185.727,60466.252
0.804,09-22-2026 21:13:21:452,-117886.9,156113.435,156382.907,79922.239,101744.873,6746.695,-185522.876,82712.854
0.808,09-22-2026 21:13:21:456,-140859.799,151726.949,151996.422,104190.153,76453.427,20761.105,-188078.217,102040.497
0.812,09-22-2026 21:13:21:460,-142895.373,151108.343,151377.815,87722.64,82032.422,7571.072,-188199.9,90574.946
0.816,09-22-2026 21:13:21:464,-121958.047,155101.169,155370.641,54354.257,110299.332,-13313.146,-186070.449,65350.734
0.8200001,09-22-2026 21:13:21:468,-106255.052,158250.44,158519.913,49153.989,122573.122,-14137.523,-180838.085,60436.927
0.8240001,09-22-2026 21:13:21:472,-118177.696,156113.435,156382.907,79922.239,101372.94,6746.695,-185766.242,82712.854
0.8280001,09-22-2026 21:13:21:476,-140859.799,151670.712,151940.185,104190.153,76081.494,20761.105,-188199.9,102040.497
0.832,09-22-2026 21:13:21:480,-142895.373,151108.343,151377.815,87289.284,82032.422,7571.072,-188321.583,90247.359
0.836,09-22-2026 21:13:21:484,-122248.843,155044.932,155314.404,54354.257,109927.399,-13313.146,-186252.974,65678.321
0.84,09-22-2026 21:13:21:488,-106255.052,158250.44,158519.913,49153.989,122573.122,-14137.523,-181203.134,60764.514
0.844,09-22-2026 21:13:21:492,-118177.696,156113.435,156382.907,79922.239,101001.006,6746.695,-185948.767,83040.441
0.848,09-22-2026 21:13:21:496,-140859.799,151670.712,151940.185,104190.153,75709.561,20761.105,-188260.742,102040.497
0.8520001,09-22-2026 21:13:21:500,-143186.169,151108.343,151377.815,87722.64,81660.489,7571.072,-188443.266,90574.946
0.8560001,09-22-2026 21:13:21:504,-122248.843,155044.932,155314.404,54354.257,109927.399,-13313.146,-186435.498,66005.908
0.86,09-22-2026 21:13:21:508,-106255.052,158250.44,158519.913,49153.989,122573.122,-14137.523,-181689.865,60764.514
0.864,09-22-2026 21:13:21:512,-118177.696,156113.435,156382.907,79922.239,101001.006,6746.695,-186131.291,83040.441
0.868,09-22-2026 21:13:21:516,-141150.596,151670.712,151940.185,104190.153,75337.628,20761.105,-188382.425,102040.497
0.872,09-22-2026 21:13:21:520,-143186.169,151108.343,151377.815,87722.64,81288.556,7571.072,-188504.107,90574.946
0.876,09-22-2026 21:13:21:524,-122539.639,155044.932,155314.404,54354.257,109555.466,-13313.146,-186557.181,65678.321
0.8800001,09-22-2026 21:13:21:528,-106255.052,158250.44,158519.913,49153.989,122201.189,-14137.523,-182054.914,60436.927
0.8840001,09-22-2026 21:13:21:532,-118468.492,156113.435,156382.907,79922.239,100629.073,6746.695,-186313.815,82712.854
0.8880001,09-22-2026 21:13:21:536,-141150.596,151670.712,151940.185,104190.153,75337.628,20761.105,-188443.266,102040.497
0.892,09-22-2026 21:13:21:540,-143186.169,151108.343,151377.815,87722.64,80916.623,7571.072,-188564.949,90574.946
0.896,09-22-2026 21:13:21:544,-122539.639,155044.932,155314.404,54354.257,109183.533,-13313.146,-186739.705,65678.321
0.9,09-22-2026 21:13:21:548,-106545.848,158194.203,158519.913,49153.989,122201.189,-14137.523,-182541.645,60764.514
0.904,09-22-2026 21:13:21:552,-118507.25,156088.088,156357.516,79912.091,100698.9,6672.711,-186447.792,82998.509
0.9080001,09-22-2026 21:13:21:556,-141342.776,151659.76,151929.188,104174.999,74767.166,20721.319,-188489.221,101874.11
0.9120001,09-22-2026 21:13:21:560,-143392.118,151092.026,151361.454,87710.883,80780.322,7499.1,-188631.646,90483.661
0.9160001,09-22-2026 21:13:21:564,-122605.934,155009.393,155278.82,54782.65,108966.989,-13160.618,-186780.117,65750.115
0.92,09-22-2026 21:13:21:568,-106796.724,158188.705,158458.133,49150.19,121744.945,-14262.469,-182744.733,60543.053
0.924,09-22-2026 21:13:21:572,-118800.014,156088.088,156357.516,79912.091,100323.078,6672.711,-186542.742,82998.509
0.928,09-22-2026 21:13:21:576,-141342.776,151659.76,151929.188,104174.999,74391.344,20721.319,-188536.696,101874.11
0.932,09-22-2026 21:13:21:580,-143684.881,151035.252,151304.68,87710.883,80404.5,7774.563,-188679.122,90809.103
0.936,09-22-2026 21:13:21:584,-122898.698,154952.619,155222.047,54782.65,108591.167,-13160.618,-186970.018,65750.115
0.9400001,09-22-2026 21:13:21:588,-106796.724,158188.705,158458.133,49150.19,121744.945,-14262.469,-183172.009,60543.053
0.9440001,09-22-2026 21:13:21:592,-118800.014,156031.314,156300.742,79912.091,99947.256,6672.711,-186685.167,82673.068
0.9480001,09-22-2026 21:13:21:596,-141635.539,151602.987,151872.415,104174.999,74391.344,20721.319,-188584.171,101874.11
0.952,09-22-2026 21:13:21:600,-143684.881,151035.252,151304.68,87710.883,80028.678,7499.1,-188726.597,90483.661
0.956,09-22-2026 21:13:21:604,-122898.698,154952.619,155222.047,54782.65,108591.167,-13160.618,-187064.968,65750.115
0.96,09-22-2026 21:13:21:608,-107089.488,158131.931,158401.359,49150.19,121369.123,-14262.469,-183409.385,60543.053
0.964,09-22-2026 21:13:21:612,-119092.777,155974.541,156243.969,79912.091,99947.256,6672.711,-186827.592,82673.068
0.9680001,09-22-2026 21:13:21:616,-141928.302,151602.987,151815.641,104174.999,74015.522,20721.319,-188631.646,101874.11
0.9720001,09-22-2026 21:13:21:620,-143977.644,150978.479,151247.907,87710.883,79652.855,7499.1,-188774.072,90483.661
0.9760001,09-22-2026 21:13:21:624,-123191.461,154895.846,155165.274,54782.65,108215.345,-13160.618,-187112.443,65750.115
0.98,09-22-2026 21:13:21:628,-107089.488,158131.931,158401.359,49150.19,121369.123,-14262.469,-183646.76,60543.053
0.984,09-22-2026 21:13:21:632,-119092.777,155974.541,156243.969,79912.091,99571.434,6672.711,-186875.068,82673.068
0.988,09-22-2026 21:13:21:636,-141928.302,151546.213,151815.641,104174.999,74015.522,20721.319,-188679.122,101874.11
0.992,09-22-2026 21:13:21:640,-143977.644,150978.479,151247.907,87710.883,79652.855,7499.1,-188774.072,90483.661
0.9960001,09-22-2026 21:13:21:644,-123191.461,154895.846,155165.274,54782.65,108215.345,-13436.081,-187207.393,65750.115
1,09-22-2026 21:13:21:648,-107382.251,158075.158,158344.586,49150.19,120993.301,-14262.469,-183884.136,60543.053
1.004,09-22-2026 21:13:21:652,-119127.332,155979.548,156252.954,79821.656,99350.688,6546.692,-186928.622,82655.41
1.008,09-22-2026 21:13:21:656,-142043.727,151536.825,151806.7,104059.53,73560.843,20577.061,-188668.303,101888.103
1.012,09-22-2026 21:13:21:660,-144074.293,150974.456,151243.884,87612.401,79167.331,7372.008,-188819.58,90478.878
1.016,09-22-2026 21:13:21:664,-123478.547,154854.808,155127.32,54718.143,107947.303,-13260.888,-187268.995,65704.562
1.02,09-22-2026 21:13:21:668,-107524.095,158060.316,158335.377,49091.494,120655.342,-14361.309,-184054.367,60488.917
1.024,09-22-2026 21:13:21:672,-119417.413,155979.548,156196.672,79821.656,99350.688,6546.692,-187004.261,82655.41
1.028,09-22-2026 21:13:21:676,-142043.727,151536.825,151806.7,104059.53,73560.843,20577.061,-188706.122,101562.125
1.032,09-22-2026 21:13:21:680,-144364.374,150918.219,151187.602,87612.401,79167.331,7372.008,-188857.399,90478.878
1.036,09-22-2026 21:13:21:684,-123478.547,154854.808,155127.32,54718.143,107573.537,-13260.888,-187344.633,66030.54
1.04,09-22-2026 21:13:21:688,-107524.095,158060.316,158335.377,49091.494,120655.342,-14361.309,-184319.101,60814.895
1.044,09-22-2026 21:13:21:692,-119417.413,155923.311,156196.672,79388.837,98976.922,6271.587,-187079.899,82655.41
1.048,09-22-2026 21:13:21:696,-142333.808,151536.825,151750.419,104059.53,73187.077,20577.061,-188743.942,101888.103
1.052,09-22-2026 21:13:21:700,-144364.374,150918.219,151187.602,87612.401,78793.565,7372.008,-188857.399,90804.856
1.056,09-22-2026 21:13:21:704,-123768.627,154854.808,155127.32,54718.143,107573.537,-13260.888,-187344.633,66030.54
1.06,09-22-2026 21:13:21:708,-107524.095,158060.316,158335.377,49091.494,120655.342,-14361.309,-184281.282,60488.917
1.064,09-22-2026 21:13:21:712,-119417.413,155923.311,156196.672,79388.837,98976.922,6546.692,-187079.899,82655.41
1.068,09-22-2026 21:13:21:716,-142333.808,151536.825,151806.7,104059.53,73187.077,20577.061,-188743.942,101888.103
1.072,09-22-2026 21:13:21:720,-144364.374,150918.219,151187.602,87612.401,78793.565,7372.008,-188857.399,90478.878
1.076,09-22-2026 21:13:21:724,-123768.627,154854.808,155127.32,54718.143,107199.771,-13260.888,-187382.452,66030.54
1.08,09-22-2026 21:13:21:728,-107814.176,158004.079,158279.095,49091.494,120281.577,-14361.309,-184432.558,60814.895
1.084,09-22-2026 21:13:21:732,-119417.413,155923.311,156196.672,79388.837,98976.922,6271.587,-187079.899,82981.388
1.088,09-22-2026 21:13:21:736,-142333.808,151480.588,151750.419,104059.53,73187.077,20577.061,-188743.942,101888.103
1.092,09-22-2026 21:13:21:740,-144364.374,150918.219,151187.602,87612.401,78793.565,7372.008,-188857.399,90804.856
1.096,09-22-2026 21:13:21:744,-123768.627,154798.571,155071.039,54718.143,107199.771,-13260.888,-187344.633,66356.518
1.1,09-22-2026 21:13:21:748,-107814.176,158004.079,158279.095,49091.494,120281.577,-14361.309,-184356.92,61140.872
1.104,09-22-2026 21:13:21:752,-119585.722,155900.154,156169.448,79347.083,98708.656,6504.715,-187083.252,83042.587
1.108,09-22-2026 21:13:21:756,-142201.575,151513.669,151782.963,103961.719,72924.98,20512.285,-188734.867,101938.93
1.112,09-22-2026 21:13:21:760,-144521.149,150895.062,151164.356,87551.962,78530.127,7603.348,-188869.693,90861.763
1.116,09-22-2026 21:13:21:764,-123644.978,154831.651,155100.945,54732.448,107303.215,-13270.678,-187454.022,66101.037
1.12,09-22-2026 21:13:21:768,-107987.849,157980.923,158250.217,49118.584,120008.215,-14369.311,-184622.682,60888.253
1.124,09-22-2026 21:13:21:772,-119585.722,155900.154,156169.448,79347.083,98708.656,6230.057,-187150.665,82716.788
1.128,09-22-2026 21:13:21:776,-142491.522,151457.432,151726.726,103961.719,72924.98,20512.285,-188768.573,101938.93
1.132,09-22-2026 21:13:21:780,-144811.096,150838.825,151108.119,87551.962,78530.127,7603.348,-188903.399,90861.763
1.136,09-22-2026 21:13:21:784,-123934.924,154775.414,155044.708,54732.448,106929.538,-13270.678,-187487.729,66101.037
1.14,09-22-2026 21:13:21:788,-107987.849,157980.923,158250.217,49118.584,120008.215,-14369.311,-184723.802,60888.253
1.144,09-22-2026 21:13:21:792,-119585.722,155900.154,156169.448,79347.083,98708.656,6230.057,-187184.371,82716.788
1.148,09-22-2026 21:13:21:796,-142491.522,151457.432,151726.726,103961.719,72551.304,20512.285,-188768.573,101938.93
1.152,09-22-2026 21:13:21:800,-144811.096,150838.825,151108.119,87551.962,78156.451,7603.348,-188903.399,90861.763
1.156,09-22-2026 21:13:21:804,-123934.924,154775.414,155044.708,54732.448,106929.538,-13270.678,-187454.022,66426.836
1.16,09-22-2026 21:13:21:808,-107987.849,157980.923,158250.217,49118.584,120008.215,-14369.311,-184622.682,61214.052
1.164,09-22-2026 21:13:21:812,-119875.669,155843.917,156113.211,79347.083,98334.98,6504.715,-187150.665,83042.587
1.168,09-22-2026 21:13:21:816,-142491.522,151457.432,151726.726,103961.719,72551.304,20512.285,-188768.573,101938.93
1.172,09-22-2026 21:13:21:820,-144811.096,150838.825,151108.119,87551.962,78156.451,7603.348,-188903.399,91187.562
1.176,09-22-2026 21:13:21:824,-123934.924,154775.414,155044.708,54732.448,106929.538,-13270.678,-187521.435,66426.836
1.18,09-22-2026 21:13:21:828,-107987.849,157980.923,158250.217,49118.584,120008.215,-14369.311,-184824.921,60888.253
1.184,09-22-2026 21:13:21:832,-119875.669,155843.917,156113.211,79347.083,98334.98,6230.057,-187218.077,83042.587
1.188,09-22-2026 21:13:21:836,-142781.468,151401.195,151670.489,103961.719,72551.304,20512.285,-188768.573,101938.93
1.192,09-22-2026 21:13:21:840,-144811.096,150838.825,151108.119,87551.962,78156.451,7603.348,-188903.399,90861.763
1.196,09-22-2026 21:13:21:844,-124224.871,154719.177,154988.471,54732.448,106555.862,-13270.678,-187487.729,66101.037
1.2,09-22-2026 21:13:21:848,-108277.796,157924.686,158193.98,49118.584,119634.538,-14369.311,-184791.214,60562.454
1.204,09-22-2026 21:13:21:852,-120156.541,155842.666,156059.567,79749.638,98281.425,6481.738,-187190.048,82590.456
1.208,09-22-2026 21:13:21:856,-142789.828,151389.349,151659.134,103944.955,72280.535,20525.786,-188771.568,101699.186
1.212,09-22-2026 21:13:21:860,-145111.191,150769.267,151038.56,87526.704,77852.154,7583.232,-188868.396,90687.375
1.216,09-22-2026 21:13:21:864,-124218.926,154715.244,154987.667,54690.204,106453.133,-13345.154,-187512.808,65748.863
1.22,09-22-2026 21:13:21:868,-108549.727,157872.025,158146.952,49073.434,119453.579,-14446.648,-184898.458,60566.835
1.224,09-22-2026 21:13:21:872,-120156.541,155786.294,156059.567,79317.579,98281.425,6206.364,-187190.048,82590.456
1.228,09-22-2026 21:13:21:876,-143079.998,151389.349,151659.134,103944.955,72280.535,20525.786,-188707.017,101699.186
1.232,09-22-2026 21:13:21:880,-145111.191,150769.267,151038.56,87526.704,77852.154,7583.232,-188836.12,90687.375
1.236,09-22-2026 21:13:21:884,-124509.096,154658.872,154931.251,54690.204,106453.133,-13345.154,-187448.256,66072.74
1.24,09-22-2026 21:13:21:888,-108549.727,157872.025,158146.952,49073.434,119453.579,-14446.648,-184769.354,60566.835
1.244,09-22-2026 21:13:21:892,-120156.541,155786.294,156059.567,79317.579,98281.425,6206.364,-187125.497,82590.456
1.248,09-22-2026 21:13:21:896,-143079.998,151332.978,151602.718,103944.955,72280.535,20525.786,-188707.017,101699.186
1.252,09-22-2026 21:13:21:900,-145401.361,150712.895,150982.145,87526.704,77852.154,7583.232,-188836.12,91011.252
1.256,09-22-2026 21:13:21:904,-124799.266,154602.501,154874.835,54690.204,106081.692,-13345.154,-187480.532,66072.74
1.26,09-22-2026 21:13:21:908,-108549.727,157815.654,158090.536,49073.434,119453.579,-14446.648,-184898.458,60566.835
1.264,09-22-2026 21:13:21:912,-120156.541,155786.294,156059.567,79317.579,97909.984,6206.364,-187125.497,82590.456
1.268,09-22-2026 21:13:21:916,-143079.998,151332.978,151602.718,103944.955,72280.535,20525.786,-188674.741,101699.186
1.272,09-22-2026 21:13:21:920,-145401.361,150712.895,150982.145,87526.704,77852.154,7583.232,-188803.844,90687.375
1.276,09-22-2026 21:13:21:924,-124799.266,154602.501,154874.835,55122.263,106081.692,-13069.78,-187448.256,66396.617
1.28,09-22-2026 21:13:21:928,-108839.897,157815.654,158090.536,49073.434,119082.137,-14446.648,-184963.01,60890.712
1.284,09-22-2026 21:13:21:932,-120446.711,155729.923,156003.151,79317.579,97909.984,6206.364,-187125.497,82590.456
1.288,09-22-2026 21:13:21:936,-143370.169,151332.978,151602.718,103944.955,72280.535,20525.786,-188642.465,101699.186
1.292,09-22-2026 21:13:21:940,-145401.361,150712.895,150982.145,87526.704,77480.713,7583.232,-188803.844,90687.375
1.296,09-22-2026 21:13:21:944,-125089.437,154546.13,154818.419,55122.263,106081.692,-13069.78,-187415.98,66072.74
1.3,09-22-2026 21:13:21:948,-108839.897,157815.654,158090.536,49073.434,119082.137,-14446.648,-184866.182,60566.835
1.304,09-22-2026 21:13:21:952,-120408.937,155718.256,155987.371,79202.378,97860.408,6087.9,-187119.015,82891.31
1.308,09-22-2026 21:13:21:956,-143219.384,151279.065,151548.18,103735.474,72041.013,20346.882,-188648.813,101960.477
1.312,09-22-2026 21:13:21:960,-145818.042,150660.95,150930.065,87810.482,77573.741,7458.956,-188768.797,90971.466
1.316,09-22-2026 21:13:21:964,-125028.774,154538.218,154807.333,54669.282,105975.074,-13381.095,-187478.967,66084.587
1.32,09-22-2026 21:13:21:968,-109148.083,157741.178,158010.293,49074.015,118884.771,-14477.94,-185079.284,60913.287
1.324,09-22-2026 21:13:21:972,-120697.677,155718.256,155987.371,79202.378,97860.408,6087.9,-187149.011,82568.104
1.328,09-22-2026 21:13:21:976,-143508.124,151279.065,151548.18,103735.474,72041.013,20346.882,-188648.813,101960.477
1.332,09-22-2026 21:13:21:980,-145818.042,150660.95,150930.065,87810.482,77204.892,7458.956,-188768.797,90971.466
1.336,09-22-2026 21:13:21:984,-125028.774,154538.218,154807.333,55099.688,105606.226,-13106.884,-187418.975,66407.793
1.34,09-22-2026 21:13:21:988,-109148.083,157741.178,158010.293,49074.015,118884.771,-14477.94,-184959.3,60913.287
1.344,09-22-2026 21:13:21:992,-120697.677,155662.063,155931.178,79202.378,97860.408,6087.9,-187119.015,82891.31
1.348,09-22-2026 21:13:21:996,-143508.124,151279.065,151548.18,103735.474,72041.013,20346.882,-188618.817,101960.477
1.352,09-22-2026 21:13:22:000,-145818.042,150604.758,150873.873,87810.482,77204.892,7458.956,-188768.797,90971.466
1.356,09-22-2026 21:13:22:004,-125317.514,154482.025,154807.333,55099.688,105606.226,-13106.884,-187478.967,66407.793
1.36,09-22-2026 21:13:22:008,-109148.083,157741.178,158010.293,49074.015,118884.771,-14477.94,-185139.276,61236.493
1.364,09-22-2026 21:13:22:012,-120697.677,155662.063,155931.178,79202.378,97860.408,6087.9,-187149.011,82891.31
1.368,09-22-2026 21:13:22:016,-143508.124,151222.873,151491.988,103735.474,72041.013,20346.882,-188618.817,101960.477
1.372,09-22-2026 21:13:22:020,-145818.042,150604.758,150873.873,87810.482,77204.892,7458.956,-188768.797,91294.672
1.376,09-22-2026 21:13:22:024,-125317.514,154482.025,154751.14,55099.688,105606.226,-13106.884,-187448.971,66730.999
1.38,09-22-2026 21:13:22:028,-109148.083,157741.178,158010.293,49074.015,118884.771,-14477.94,-185079.284,60913.287
1.384,09-22-2026 21:13:22:032,-120697.677,155662.063,155931.178,79202.378,97491.559,6087.9,-187149.011,82891.31
1.388,09-22-2026 21:13:22:036,-143508.124,151222.873,151491.988,103735.474,72041.013,20346.882,-188618.817,101960.477
1.392,09-22-2026 21:13:22:040,-145818.042,150604.758,150873.873,87810.482,77204.892,7458.956,-188768.797,91294.672
1.396,09-22-2026 21:13:22:044,-125317.514,154482.025,154751.14,55099.688,105606.226,-13106.884,-187508.963,66407.793
1.4,09-22-2026 21:13:22:048,-109436.823,157684.986,157954.101,49074.015,118884.771,-14477.94,-185289.256,60913.287
1.404,09-22-2026 21:13:22:052,-120709.881,155627.374,155896.489,79244.265,97593.617,6093.935,-187159.695,82660.461
1.408,09-22-2026 21:13:22:056,-143559.175,151188.183,151457.298,103703.466,71833.679,20304.101,-188602.857,101958.958
1.412,09-22-2026 21:13:22:060,-145873.028,150570.068,150839.183,87826.441,77353.666,7460.297,-188744.344,91344.785
1.416,09-22-2026 21:13:22:064,-125337.586,154447.336,154716.451,55214.173,105321.599,-13035.135,-187442.668,66900.023
1.42,09-22-2026 21:13:22:068,-109429.849,157650.296,157919.411,49206.65,118569.567,-14401.497,-185150.586,61432.116
1.424,09-22-2026 21:13:22:072,-120999.112,155571.181,155840.296,79244.265,97593.617,6093.935,-187131.397,82982.103
1.428,09-22-2026 21:13:22:076,-143559.175,151188.183,151457.298,103703.466,71833.679,20304.101,-188602.857,101958.958
1.432,09-22-2026 21:13:22:080,-146162.259,150570.068,150839.183,87826.441,76985.666,7460.297,-188716.047,91344.785
1.436,09-22-2026 21:13:22:084,-125337.586,154447.336,154716.451,55214.173,105689.598,-13035.135,-187470.965,66900.023
1.44,09-22-2026 21:13:22:088,-109429.849,157650.296,157919.411,49206.65,118569.567,-14401.497,-185235.478,61432.116
1.444,09-22-2026 21:13:22:092,-120999.112,155571.181,155840.296,79244.265,97593.617,6093.935,-187103.1,83303.745
1.448,09-22-2026 21:13:22:096,-143559.175,151188.183,151457.298,103703.466,71833.679,20304.101,-188546.263,102280.599
1.452,09-22-2026 21:13:22:100,-146162.259,150513.876,150782.991,87826.441,76985.666,7460.297,-188687.749,91666.426
1.456,09-22-2026 21:13:22:104,-125626.817,154391.143,154660.258,55214.173,105321.599,-13035.135,-187442.668,67543.306
1.46,09-22-2026 21:13:22:108,-109719.081,157594.104,157863.219,49206.65,118569.567,-14401.497,-185235.478,61753.757
1.464,09-22-2026 21:13:22:112,-120999.112,155571.181,155840.296,79244.265,97593.617,6093.935,-187103.1,83303.745
1.468,09-22-2026 21:13:22:116,-143848.407,151188.183,151401.106,103703.466,71833.679,20304.101,-188546.263,102280.599
1.472,09-22-2026 21:13:22:120,-146162.259,150513.876,150782.991,87826.441,76985.666,7460.297,-188687.749,91666.426
1.476,09-22-2026 21:13:22:124,-125626.817,154391.143,154660.258,55214.173,105321.599,-13035.135,-187414.37,67221.664
1.48,09-22-2026 21:13:22:128,-109429.849,157594.104,157863.219,49206.65,118569.567,-14401.497,-185178.883,61753.757
1.484,09-22-2026 21:13:22:132,-121288.344,155514.989,155784.104,79244.265,97225.618,6093.935,-187074.803,83303.745
1.488,09-22-2026 21:13:22:136,-143848.407,151131.991,151401.106,103703.466,71833.679,20304.101,-188546.263,102280.599
1.492,09-22-2026 21:13:22:140,-146162.259,150513.876,150782.991,87826.441,76985.666,7460.297,-188687.749,91666.426
1.496,09-22-2026 21:13:22:144,-125626.817,154391.143,154660.258,55214.173,105321.599,-13035.135,-187442.668,67221.664
1.5,09-22-2026 21:13:22:148,-109719.081,157594.104,157863.219,49206.65,118569.567,-14401.497,-185320.37,61753.757
1.504,09-22-2026 21:13:22:152,-121174.976,155524.69,155794.073,79214.806,97334.829,5949.185,-187096.305,83203.206
1.508,09-22-2026 21:13:22:156,-143964.233,151152.152,151421.535,103582.275,71665.638,20147.728,-188520.245,102219.624
1.512,09-22-2026 21:13:22:160,-146272.006,150479.454,150748.837,87764.795,76799.476,7587.478,-188681.446,91583.322
1.516,09-22-2026 21:13:22:164,-125790.522,154347.468,154616.851,55274.836,105035.586,-13164.239,-187418.707,67087.599
1.52,09-22-2026 21:13:22:168,-109924.583,157542.784,157812.167,49289.843,118236.884,-14529.483,-185269.363,61608.292
1.524,09-22-2026 21:13:22:172,-121463.447,155524.69,155794.073,79214.806,97334.829,5949.185,-187096.305,83203.206
1.528,09-22-2026 21:13:22:176,-143964.233,151152.152,151421.535,103582.275,71665.638,20147.728,-188520.245,102219.624
1.532,09-22-2026 21:13:22:180,-146560.478,150479.454,150748.837,87764.795,76799.476,7587.478,-188681.446,91261.01
1.536,09-22-2026 21:13:22:184,-125790.522,154347.468,154616.851,55274.836,105035.586,-13164.239,-187472.44,66765.287
1.54,09-22-2026 21:13:22:188,-109924.583,157542.784,157812.167,49289.843,118236.884,-14529.483,-185484.297,61285.98
1.544,09-22-2026 21:13:22:192,-121463.447,155468.631,155738.015,79214.806,97334.829,5949.185,-187150.039,82880.894
1.548,09-22-2026 21:13:22:196,-143964.233,151096.094,151365.477,103582.275,71665.638,20147.728,-188547.112,101897.311
1.552,09-22-2026 21:13:22:200,-146560.478,150423.396,150692.779,87764.795,76799.476,7314.43,-188681.446,91261.01
1.556,09-22-2026 21:13:22:204,-126078.993,154291.41,154560.793,55274.836,105035.586,-13164.239,-187472.44,66765.287
1.56,09-22-2026 21:13:22:208,-109924.583,157486.726,157756.109,49289.843,118236.884,-14529.483,-185484.297,61285.98
1.564,09-22-2026 21:13:22:212,-121463.447,155468.631,155738.015,79214.806,97334.829,5949.185,-187150.039,82880.894
1.568,09-22-2026 21:13:22:216,-143964.233,151096.094,151365.477,103582.275,71665.638,20147.728,-188547.112,101574.999
1.572,09-22-2026 21:13:22:220,-146560.478,150423.396,150692.779,87764.795,76799.476,7587.478,-188681.446,91261.01
1.576,09-22-2026 21:13:22:224,-126078.993,154291.41,154560.793,55274.836,105035.586,-13164.239,-187526.174,66765.287
1.58,09-22-2026 21:13:22:228,-110213.054,157486.726,157756.109,49289.843,118236.884,-14529.483,-185645.498,61285.98
1.584,09-22-2026 21:13:22:232,-121463.447,155468.631,155738.015,79214.806,97334.829,5949.185,-187176.906,82558.582
1.588,09-22-2026 21:13:22:236,-144252.705,151040.036,151309.419,103582.275,71665.638,20147.728,-188547.112,101897.311
1.592,09-22-2026 21:13:22:240,-146560.478,150423.396,150692.779,87764.795,76799.476,7314.43,-188681.446,91261.01
1.596,09-22-2026 21:13:22:244,-126367.465,154235.352,154504.735,55274.836,105035.586,-13164.239,-187499.307,67087.599
1.6,09-22-2026 21:13:22:248,-110213.054,157486.726,157756.109,49289.843,118236.884,-14529.483,-185591.765,61285.98
1.604,09-22-2026 21:13:22:252,-121534.392,155423.302,155692.551,79143.727,97221.55,5841.584,-187174,82909.236
1.608,09-22-2026 21:13:22:256,-144171.792,151030.022,151299.271,103457.687,71627.462,19977.363,-188545.86,101714.653
1.612,09-22-2026 21:13:22:260,-146750.736,150362.688,150631.937,87674.941,76746.279,7472.635,-188668.348,91196.369
1.616,09-22-2026 21:13:22:264,-126405.731,154199.857,154469.106,55256.329,104899.777,-13187.35,-187467.97,66972.443
1.62,09-22-2026 21:13:22:268,-110358.967,157425.303,157694.552,49284.479,118062.451,-14546.56,-185557.164,61235.197
1.624,09-22-2026 21:13:22:272,-121534.392,155423.302,155692.551,79143.727,97221.55,5841.584,-187149.502,82590.5
1.628,09-22-2026 21:13:22:276,-144171.792,151030.022,151299.271,103457.687,71627.462,19977.363,-188521.363,101714.653
1.632,09-22-2026 21:13:22:280,-146750.736,150362.688,150631.937,87674.941,76746.279,7472.635,-188668.348,91196.369
1.636,09-22-2026 21:13:22:284,-126405.731,154199.857,154469.106,55256.329,104899.777,-13187.35,-187516.965,66653.707
1.64,09-22-2026 21:13:22:288,-110358.967,157425.303,157694.552,49284.479,118062.451,-14546.56,-185704.149,61235.197
1.644,09-22-2026 21:13:22:292,-121534.392,155423.302,155692.551,79143.727,97221.55,5841.584,-187174,82590.5
1.648,09-22-2026 21:13:22:296,-144171.792,151030.022,151299.271,103457.687,71627.462,19977.363,-188521.363,101714.653
1.652,09-22-2026 21:13:22:300,-146750.736,150362.688,150631.937,87674.941,76746.279,7472.635,-188668.348,91196.369
1.656,09-22-2026 21:13:22:304,-126405.731,154199.857,154469.106,55256.329,104899.777,-13187.35,-187467.97,66972.443
1.66,09-22-2026 21:13:22:308,-110358.967,157425.303,157694.552,49284.479,118062.451,-14546.56,-185581.662,61235.197
1.664,09-22-2026 21:13:22:312,-121820.941,155367.691,155636.94,79143.727,97221.55,5841.584,-187149.502,82909.236
1.668,09-22-2026 21:13:22:316,-144171.792,151030.022,151299.271,103457.687,71627.462,19977.363,-188496.865,101714.653
1.672,09-22-2026 21:13:22:320,-146750.736,150362.688,150631.937,87674.941,76746.279,7472.635,-188643.851,91196.369
1.676,09-22-2026 21:13:22:324,-126405.731,154199.857,154469.106,55256.329,104899.777,-13187.35,-187467.97,66653.707
1.68,09-22-2026 21:13:22:328,-110358.967,157425.303,157694.552,49284.479,118062.451,-14546.56,-185655.154,61235.197
1.684,09-22-2026 21:13:22:332,-121534.392,155423.302,155692.551,79143.727,97221.55,5841.584,-187125.005,82590.5
1.688,09-22-2026 21:13:22:336,-144458.341,151030.022,151299.271,103457.687,71627.462,19977.363,-188472.368,101714.653
1.692,09-22-2026 21:13:22:340,-146750.736,150362.688,150631.937,87674.941,76746.279,7472.635,-188643.851,91196.369
1.696,09-22-2026 21:13:22:344,-126405.731,154199.857,154469.106,55256.329,104899.777,-13187.35,-187467.97,66653.707
1.7,09-22-2026 21:13:22:348,-110358.967,157425.303,157694.552,49284.479,118062.451,-14546.56,-185630.657,61235.197
1.704,09-22-2026 21:13:22:352,-121924.385,155351.24,155620.444,79100.991,97070.184,5746.142,-187136.762,82793.231
1.708,09-22-2026 21:13:22:356,-144275.235,151020.545,151289.749,103353.796,71516.776,19865.649,-188491.099,101611.835
1.712,09-22-2026 21:13:22:360,-147140.729,150298.762,150567.967,87610.747,76627.457,7375.316,-188612.022,91086.175
1.716,09-22-2026 21:13:22:364,-126509.175,154185.284,154454.488,55273.674,104736.207,-13260.888,-187475.346,66845.261
1.72,09-22-2026 21:13:22:368,-110748.96,157350.022,157619.227,49316.844,117877.959,-14618.533,-185709.871,61103.992
1.724,09-22-2026 21:13:22:372,-121924.385,155351.24,155620.444,79100.991,97070.184,5746.142,-187136.762,82793.231
1.728,09-22-2026 21:13:22:376,-144561.785,150965.023,151234.228,103353.796,71516.776,19865.649,-188466.914,101611.835
1.732,09-22-2026 21:13:22:380,-147140.729,150298.762,150567.967,87610.747,76627.457,7375.316,-188612.022,91086.175
1.736,09-22-2026 21:13:22:384,-126795.724,154129.762,154398.966,55273.674,104736.207,-13260.888,-187451.161,66845.261
1.74,09-22-2026 21:13:22:388,-110748.96,157350.022,157619.227,49316.844,117877.959,-14618.533,-185588.948,61103.992
1.744,09-22-2026 21:13:22:392,-122210.934,155351.24,155620.444,79100.991,97070.184,5746.142,-187112.577,82793.231
1.748,09-22-2026 21:13:22:396,-144561.785,150965.023,151234.228,103353.796,71516.776,19865.649,-188466.914,101611.835
1.752,09-22-2026 21:13:22:400,-147140.729,150298.762,150567.967,88036.235,76627.457,7375.316,-188612.022,91086.175
1.756,09-22-2026 21:13:22:404,-126795.724,154129.762,154398.966,55273.674,104736.207,-13260.888,-187451.161,66845.261
1.76,09-22-2026 21:13:22:408,-110748.96,157350.022,157619.227,49316.844,117877.959,-14618.533,-185685.687,61103.992
1.764,09-22-2026 21:13:22:412,-121924.385,155351.24,155620.444,79100.991,97070.184,5746.142,-187112.577,82474.271
1.768,09-22-2026 21:13:22:416,-144561.785,150965.023,151234.228,103353.796,71516.776,19865.649,-188442.73,101292.876
1.772,09-22-2026 21:13:22:420,-147140.729,150298.762,150567.967,87610.747,76627.457,7375.316,-188587.837,90767.216
1.776,09-22-2026 21:13:22:424,-127082.274,154074.24,154343.445,55273.674,104736.207,-12989.359,-187426.977,66845.261
1.78,09-22-2026 21:13:22:428,-110748.96,157350.022,157619.227,49316.844,117877.959,-14618.533,-185685.687,61103.992
1.784,09-22-2026 21:13:22:432,-122210.934,155351.24,155620.444,79100.991,97070.184,5746.142,-187112.577,82474.271
1.788,09-22-2026 21:13:22:436,-144848.334,150965.023,151234.228,103353.796,71516.776,19865.649,-188442.73,101611.835
1.792,09-22-2026 21:13:22:440,-147140.729,150298.762,150567.967,87610.747,76627.457,7375.316,-188587.837,91086.175
1.796,09-22-2026 21:13:22:444,-127082.274,154074.24,154343.445,55273.674,104736.207,-13260.888,-187402.792,66845.261
1.8,09-22-2026 21:13:22:448,-110748.96,157350.022,157619.227,49316.844,117877.959,-14618.533,-185540.579,61103.992
1.804,09-22-2026 21:13:22:452,-122326.851,155326.564,155595.902,79088.429,96996.87,5704.165,-187050.395,82675.884
1.808,09-22-2026 21:13:22:456,-144796.255,150967.974,151181.433,103351.427,71459.108,19839.945,-188397.4,101834.905
1.812,09-22-2026 21:13:22:460,-147388.878,150241.542,150510.88,88027.428,76566.661,7335.217,-188522.123,91297.444
1.816,09-22-2026 21:13:22:464,-126935.959,154097.218,154366.556,55251.098,104658.199,-13324.769,-187374.674,67029.35
1.82,09-22-2026 21:13:22:468,-111092.149,157282.341,157551.68,49291.766,117791.905,-14683.979,-185553.722,61600.961
1.824,09-22-2026 21:13:22:472,-122326.851,155326.564,155595.902,79088.429,96996.87,5704.165,-187025.45,82995.201
1.828,09-22-2026 21:13:22:476,-144796.255,150912.094,151181.433,103351.427,71459.108,19839.945,-188372.456,101834.905
1.832,09-22-2026 21:13:22:480,-147388.878,150241.542,150510.88,87601.762,76566.661,7335.217,-188522.123,91297.444
1.836,09-22-2026 21:13:22:484,-127224.028,154041.338,154310.677,55251.098,104658.199,-13052.927,-187324.785,67348.667
1.84,09-22-2026 21:13:22:488,-111092.149,157282.341,157551.68,49291.766,117791.905,-14683.979,-185428.999,61920.278
1.844,09-22-2026 21:13:22:492,-122326.851,155270.684,155540.023,79088.429,96996.87,5704.165,-186975.561,82995.201
1.848,09-22-2026 21:13:22:496,-145084.324,150912.094,151181.433,103351.427,71459.108,19839.945,-188347.511,101834.905
1.852,09-22-2026 21:13:22:500,-147676.947,150185.663,150455.001,88027.428,76566.661,7335.217,-188472.234,91616.761
1.856,09-22-2026 21:13:22:504,-127224.028,154041.338,154310.677,55251.098,104658.199,-13324.769,-187324.785,67348.667
1.86,09-22-2026 21:13:22:508,-111092.149,157282.341,157551.68,49291.766,117791.905,-14683.979,-185553.722,61600.961
1.864,09-22-2026 21:13:22:512,-122326.851,155270.684,155540.023,79088.429,96996.87,5704.165,-186975.561,82995.201
1.868,09-22-2026 21:13:22:516,-145084.324,150856.215,151125.553,103351.427,71459.108,19839.945,-188297.622,101834.905
1.872,09-22-2026 21:13:22:520,-147676.947,150185.663,150455.001,87601.762,76566.661,7335.217,-188447.289,91297.444
1.876,09-22-2026 21:13:22:524,-127224.028,153985.459,154310.677,55251.098,104658.199,-13052.927,-187274.896,67348.667
1.88,09-22-2026 21:13:22:528,-111092.149,157282.341,157551.68,49291.766,117791.905,-14683.979,-185354.165,61281.644
1.884,09-22-2026 21:13:22:532,-122614.92,155214.805,155484.144,79088.429,96996.87,5704.165,-186900.727,82675.884
1.888,09-22-2026 21:13:22:536,-145084.324,150856.215,151125.553,103351.427,71459.108,19839.945,-188272.677,101834.905
1.892,09-22-2026 21:13:22:540,-147676.947,150185.663,150455.001,88027.428,76566.661,7335.217,-188422.345,91297.444
1.896,09-22-2026 21:13:22:544,-127512.098,153985.459,154254.798,55251.098,104658.199,-13324.769,-187249.951,66710.033
1.9,09-22-2026 21:13:22:548,-111380.218,157226.462,157495.801,49291.766,117791.905,-14683.979,-185404.055,61281.644
1.904,09-22-2026 21:13:22:552,-122494.399,155239.928,155509.312,79067.865,96990.165,5650.879,-186903.946,82493.226
1.908,09-22-2026 21:13:22:556,-145301.315,150814.864,151084.247,103346.152,71483.695,19816.878,-188265.435,101419.968
1.912,09-22-2026 21:13:22:560,-147899.571,150142.702,150412.086,88012.497,76584.989,7285.417,-188391.499,91154.616
1.916,09-22-2026 21:13:22:564,-127690.912,153951.619,154221.002,55641.449,104642.106,-13146.313,-187206.499,66774.406
1.92,09-22-2026 21:13:22:568,-111523.984,157200.4,157469.783,49252.427,117759.719,-14780.851,-185290.329,61000.146
1.924,09-22-2026 21:13:22:572,-122783.094,155183.915,155453.298,79067.865,96990.165,5650.879,-186853.52,82493.226
1.928,09-22-2026 21:13:22:576,-145301.315,150814.864,151084.247,103346.152,71483.695,19816.878,-188215.01,101419.968
1.932,09-22-2026 21:13:22:580,-148188.266,150086.689,150356.072,88012.497,76584.989,7285.417,-188366.287,91154.616
1.936,09-22-2026 21:13:22:584,-127690.912,153951.619,154221.002,55215.514,104642.106,-13146.313,-187206.499,66774.406
1.94,09-22-2026 21:13:22:588,-111523.984,157200.4,157469.783,49252.427,117759.719,-14780.851,-185340.754,61000.146
1.944,09-22-2026 21:13:22:592,-122783.094,155183.915,155453.298,79067.865,96990.165,5650.879,-186828.308,82172.433
1.948,09-22-2026 21:13:22:596,-145301.315,150814.864,151084.247,103346.152,71483.695,19816.878,-188215.01,101419.968
1.952,09-22-2026 21:13:22:600,-148188.266,150086.689,150356.072,88012.497,76584.989,7285.417,-188341.074,90833.824
1.956,09-22-2026 21:13:22:604,-127690.912,153951.619,154221.002,55215.514,104642.106,-13146.313,-187181.286,66453.614
1.96,09-22-2026 21:13:22:608,-111812.679,157144.386,157413.77,49252.427,117759.719,-14780.851,-185315.542,60679.354
1.964,09-22-2026 21:13:22:612,-122783.094,155183.915,155453.298,78641.931,96990.165,5378.456,-186803.095,81851.641
1.968,09-22-2026 21:13:22:616,-145590.01,150758.851,151028.234,103346.152,71483.695,19816.878,-188164.584,101099.175
1.972,09-22-2026 21:13:22:620,-148188.266,150086.689,150356.072,88012.497,76584.989,7285.417,-188315.861,90833.824
1.976,09-22-2026 21:13:22:624,-127979.607,153895.605,154164.988,55641.449,104642.106,-13146.313,-187130.861,66453.614
1.98,09-22-2026 21:13:22:628,-111523.984,157144.386,157469.783,49252.427,117759.719,-14780.851,-185189.478,60679.354
1.984,09-22-2026 21:13:22:632,-123071.79,155127.901,155397.285,79067.865,96990.165,5650.879,-186777.882,81851.641
1.988,09-22-2026 21:13:22:636,-145590.01,150758.851,151028.234,103346.152,71483.695,19816.878,-188164.584,101099.175
1.992,09-22-2026 21:13:22:640,-148188.266,150086.689,150356.072,88012.497,76584.989,7285.417,-188290.648,90833.824
1.996,09-22-2026 21:13:22:644,-127979.607,153895.605,154164.988,55215.514,104642.106,-13146.313,-187156.074,66453.614
2,09-22-2026 21:13:22:648,-111812.679,157144.386,157413.77,49252.427,117759.719,-14780.851,-185290.329,60679.354
2.004,09-22-2026 21:13:22:652,-123062.894,155171.04,155444.581,78587.392,97009.208,5299.777,-186781.056,82242.037
2.008,09-22-2026 21:13:22:656,-145756.798,150770.697,151040.706,103309.763,71571.582,19752.415,-188142.903,101339.367
2.012,09-22-2026 21:13:22:660,-148342.18,150046.59,150316.018,87964.843,76659.107,7208.616,-188288.815,91154.124
2.016,09-22-2026 21:13:22:664,-127946.392,153889.928,154162.44,55570.013,104640.496,-13243.23,-187121.518,66964.172
2.02,09-22-2026 21:13:22:668,-111859.573,157120.559,157395.665,49176.296,117722.704,-14879.377,-185200.341,60916.684
2.024,09-22-2026 21:13:22:672,-123062.894,155115.34,155388.836,79013.64,97009.208,5572.469,-186781.056,82242.037
2.028,09-22-2026 21:13:22:676,-145756.798,150770.697,151040.706,103309.763,71571.582,19752.415,-188142.903,101339.367
2.032,09-22-2026 21:13:22:680,-148342.18,150046.59,150316.018,87964.843,76295.713,7481.308,-188288.815,91154.124
2.036,09-22-2026 21:13:22:684,-127946.392,153889.928,154162.44,55570.013,104640.496,-13243.23,-187145.837,66645.884
2.04,09-22-2026 21:13:22:688,-111859.573,157120.559,157395.665,49176.296,117722.704,-14879.377,-185321.934,60916.684
2.044,09-22-2026 21:13:22:692,-123062.894,155115.34,155388.836,78587.392,97009.208,5299.777,-186781.056,82242.037
2.048,09-22-2026 21:13:22:696,-145756.798,150714.997,150984.961,103309.763,71571.582,19752.415,-188118.585,101339.367
2.052,09-22-2026 21:13:22:700,-148342.18,150046.59,150316.018,87964.843,76659.107,7208.616,-188288.815,90835.835
2.056,09-22-2026 21:13:22:704,-127946.392,153834.227,154106.695,55570.013,104277.102,-13243.23,-187097.199,66645.884
2.06,09-22-2026 21:13:22:708,-111859.573,157120.559,157395.665,49176.296,117722.704,-14879.377,-185200.341,60916.684
2.064,09-22-2026 21:13:22:712,-123062.894,155115.34,155388.836,78587.392,97009.208,5572.469,-186756.737,82242.037
2.068,09-22-2026 21:13:22:716,-145469.534,150770.697,151040.706,103309.763,71571.582,19752.415,-188118.585,101339.367
2.072,09-22-2026 21:13:22:720,-148342.18,150046.59,150316.018,87964.843,76295.713,7481.308,-188264.497,91154.124
2.076,09-22-2026 21:13:22:724,-127946.392,153889.928,154162.44,55570.013,104277.102,-13243.23,-187121.518,66964.172
2.08,09-22-2026 21:13:22:728,-111859.573,157120.559,157395.665,49176.296,117722.704,-14879.377,-185297.616,60916.684
2.084,09-22-2026 21:13:22:732,-123062.894,155115.34,155388.836,78587.392,97009.208,5299.777,-186756.737,82242.037
2.088,09-22-2026 21:13:22:736,-145756.798,150714.997,150984.961,103309.763,71571.582,19752.415,-188118.585,101339.367
2.092,09-22-2026 21:13:22:740,-148342.18,150046.59,150316.018,87964.843,76295.713,7481.308,-188264.497,91154.124
2.096,09-22-2026 21:13:22:744,-128233.657,153834.227,154106.695,55570.013,104277.102,-13243.23,-187121.518,66964.172
2.1,09-22-2026 21:13:22:748,-111859.573,157064.859,157339.919,49176.296,117722.704,-14879.377,-185297.616,61234.973
2.104,09-22-2026 21:13:22:752,-122958.556,155111.182,155380.744,78540.633,97041.037,5219.848,-186736.621,82314.859
2.108,09-22-2026 21:13:22:756,-145730.155,150689.65,150959.212,103255.225,71565.86,19684.332,-188085.951,101393.414
2.112,09-22-2026 21:13:22:760,-148324.388,150018.024,150287.586,87915.133,76296.964,7403.166,-188230.522,91218.184
2.116,09-22-2026 21:13:22:764,-128147.021,153823.901,154093.463,55530.495,104319.659,-13065.444,-187049.858,67369.991
2.12,09-22-2026 21:13:22:768,-112005.128,157070.089,157339.651,49138.79,117785.11,-14975.848,-185170.434,61328.448
2.124,09-22-2026 21:13:22:772,-122958.556,155111.182,155380.744,78540.633,97041.037,5219.848,-186712.526,82632.835
2.128,09-22-2026 21:13:22:776,-145730.155,150745.618,150959.212,103255.225,71565.86,19684.332,-188085.951,101711.39
2.132,09-22-2026 21:13:22:780,-148612.636,149962.056,150231.618,87915.133,76296.964,7403.166,-188230.522,91536.16
2.136,09-22-2026 21:13:22:784,-128147.021,153823.901,154093.463,55530.495,104319.659,-13338.359,-187098.049,67369.991
2.14,09-22-2026 21:13:22:788,-112005.128,157070.089,157339.651,49138.79,117785.11,-14975.848,-185315.005,61646.424
2.144,09-22-2026 21:13:22:792,-122958.556,155111.182,155380.744,78540.633,97041.037,5219.848,-186736.621,82632.835
2.148,09-22-2026 21:13:22:796,-145730.155,150689.65,150959.212,103255.225,71565.86,19684.332,-188085.951,101711.39
2.152,09-22-2026 21:13:22:800,-148612.636,149962.056,150231.618,87915.133,76296.964,7403.166,-188230.522,91536.16
2.156,09-22-2026 21:13:22:804,-128435.269,153767.932,154037.494,55530.495,104319.659,-13338.359,-187073.953,67369.991
2.16,09-22-2026 21:13:22:808,-112005.128,157070.089,157339.651,49138.79,117785.11,-14975.848,-185194.529,61328.448
2.164,09-22-2026 21:13:22:812,-123246.804,155055.214,155324.776,78540.633,97041.037,5219.848,-186712.526,82632.835
2.168,09-22-2026 21:13:22:816,-145730.155,150689.65,150959.212,103255.225,71565.86,19684.332,-188085.951,101711.39
2.172,09-22-2026 21:13:22:820,-148612.636,149962.056,150231.618,87915.133,76296.964,7403.166,-188230.522,91536.16
2.176,09-22-2026 21:13:22:824,-128435.269,153767.932,154037.494,55530.495,104319.659,-13338.359,-187122.144,67052.015
2.18,09-22-2026 21:13:22:828,-112005.128,157014.12,157283.682,49138.79,117785.11,-14975.848,-185363.196,61328.448
2.184,09-22-2026 21:13:22:832,-123246.804,155055.214,155324.776,78540.633,97041.037,5219.848,-186736.621,82314.859
2.188,09-22-2026 21:13:22:836,-145730.155,150689.65,150959.212,103255.225,71565.86,19684.332,-188061.856,101711.39
2.192,09-22-2026 21:13:22:840,-148612.636,149962.056,150231.618,87915.133,76296.964,7403.166,-188230.522,91536.16
2.196,09-22-2026 21:13:22:844,-128435.269,153767.932,154037.494,55530.495,104319.659,-13338.359,-187073.953,67369.991
2.2,09-22-2026 21:13:22:848,-112005.128,157070.089,157339.651,49138.79,117785.11,-14975.848,-185242.72,61328.448
2.204,09-22-2026 21:13:22:852,-123277.828,155032.102,155306.492,78468.034,97348.284,5396.695,-186726.428,82796.539
2.208,09-22-2026 21:13:22:856,-145736.771,150680.485,150951.389,103187.812,71563.133,19590.589,-188082.106,101572.943
2.212,09-22-2026 21:13:22:860,-148904.058,149899.426,150169.703,88270.705,76284.358,7307.411,-188219.972,91389.131
2.216,09-22-2026 21:13:22:864,-128460.661,153748.933,154022.295,55453.069,104248.536,-13164.552,-187117.048,67202.576
2.22,09-22-2026 21:13:22:868,-112336.291,156984.75,157260.705,49060.023,117685.868,-15075.268,-185370.75,61155.937
2.224,09-22-2026 21:13:22:872,-123277.828,155032.102,155306.492,78468.034,97348.284,5123.735,-186749.406,82478.295
2.228,09-22-2026 21:13:22:876,-146024.706,150624.695,150895.554,103187.812,71563.133,19590.589,-188059.129,101572.943
2.232,09-22-2026 21:13:22:880,-148904.058,149899.426,150169.703,87844.501,76284.358,7307.411,-188219.972,91389.131
2.236,09-22-2026 21:13:22:884,-128748.596,153693.143,153966.46,55453.069,104248.536,-13164.552,-187094.07,67202.576
2.24,09-22-2026 21:13:22:888,-112336.291,156984.75,157260.705,49060.023,117685.868,-15075.268,-185370.75,61155.937
2.244,09-22-2026 21:13:22:892,-123277.828,155032.102,155306.492,78468.034,96985.113,5123.735,-186749.406,82478.295
2.248,09-22-2026 21:13:22:896,-146024.706,150624.695,150895.554,103187.812,71563.133,19590.589,-188082.106,101572.943
2.252,09-22-2026 21:13:22:900,-148904.058,149899.426,150169.703,88270.705,76284.358,7307.411,-188219.972,91389.131
2.256,09-22-2026 21:13:22:904,-128748.596,153748.933,153966.46,55453.069,104248.536,-13437.511,-187117.048,66884.332
2.26,09-22-2026 21:13:22:908,-112336.291,156984.75,157260.705,49060.023,117685.868,-15075.268,-185462.661,61155.937
2.264,09-22-2026 21:13:22:912,-123277.828,155032.102,155306.492,78468.034,97348.284,5123.735,-186749.406,82160.051
2.268,09-22-2026 21:13:22:916,-146024.706,150624.695,150895.554,103187.812,71563.133,19590.589,-188059.129,101572.943
2.272,09-22-2026 21:13:22:920,-148904.058,149899.426,150169.703,88270.705,76284.358,7307.411,-188196.994,91389.131
2.276,09-22-2026 21:13:22:924,-128748.596,153693.143,153966.46,55453.069,104248.536,-13164.552,-187094.07,67202.576
2.28,09-22-2026 21:13:22:928,-112336.291,156984.75,157260.705,49060.023,117685.868,-15075.268,-185439.683,61155.937
2.284,09-22-2026 21:13:22:932,-123277.828,155032.102,155306.492,78468.034,96985.113,5123.735,-186726.428,82478.295
2.288,09-22-2026 21:13:22:936,-146024.706,150624.695,150895.554,103187.812,71563.133,19590.589,-188036.151,101572.943
2.292,09-22-2026 21:13:22:940,-148904.058,149899.426,150169.703,88270.705,76284.358,7307.411,-188196.994,91389.131
2.296,09-22-2026 21:13:22:944,-128748.596,153693.143,153966.46,55453.069,104248.536,-13164.552,-187048.115,67202.576
2.3,09-22-2026 21:13:22:948,-112336.291,156984.75,157260.705,49060.023,117685.868,-15075.268,-185301.818,61155.937
2.304,09-22-2026 21:13:22:952,-123486.325,154998.619,155272.785,78389.982,97012.382,5031.288,-186696.79,82460.681
2.308,09-22-2026 21:13:22:956,-146197.888,150598.276,150868.911,103125.316,71549.722,19498.142,-188026.898,101316.211
2.312,09-22-2026 21:13:22:960,-149072.769,149874.169,150144.222,88198.821,76278.502,7487.924,-188187.428,91409.068
2.316,09-22-2026 21:13:22:964,-128661.111,153661.806,153934.899,55787.004,104287.428,-13256.998,-187086.649,66801.005
2.32,09-22-2026 21:13:22:968,-112561.776,156948.138,157223.869,48963.463,117746.263,-15167.715,-185435.481,60728.885
2.324,09-22-2026 21:13:22:972,-123486.325,154998.619,155272.785,78389.982,97012.382,5031.288,-186719.723,81821.511
2.328,09-22-2026 21:13:22:976,-146197.888,150598.276,150868.911,103125.316,71549.722,19498.142,-188026.898,101316.211
2.332,09-22-2026 21:13:22:980,-149072.769,149874.169,150144.222,88198.821,76278.502,7214.964,-188187.428,91089.483
2.336,09-22-2026 21:13:22:984,-128948.6,153661.806,153934.899,55787.004,103923.676,-13256.998,-187063.716,66801.005
2.34,09-22-2026 21:13:22:988,-112561.776,156948.138,157223.869,48963.463,117746.263,-15167.715,-185320.817,60728.885
2.344,09-22-2026 21:13:22:992,-123486.325,154998.619,155272.785,78389.982,97012.382,5031.288,-186696.79,81821.511
2.348,09-22-2026 21:13:22:996,-146197.888,150598.276,150868.911,103125.316,71549.722,19498.142,-188049.831,100996.626
2.352,09-22-2026 21:13:23:000,-149072.769,149874.169,150144.222,88198.821,76278.502,7487.924,-188187.428,91089.483
2.356,09-22-2026 21:13:23:004,-128948.6,153661.806,153934.899,55787.004,104287.428,-13256.998,-187086.649,66801.005
2.36,09-22-2026 21:13:23:008,-112561.776,156948.138,157223.869,48963.463,117746.263,-15167.715,-185412.548,60728.885
2.364,09-22-2026 21:13:23:012,-123486.325,154998.619,155272.785,78389.982,97376.135,5031.288,-186719.723,81821.511
2.368,09-22-2026 21:13:23:016,-146197.888,150598.276,150868.911,103125.316,71549.722,19498.142,-188049.831,100996.626
2.372,09-22-2026 21:13:23:020,-149072.769,149874.169,150144.222,88198.821,76278.502,7214.964,-188187.428,91089.483
2.376,09-22-2026 21:13:23:024,-128948.6,153661.806,153934.899,55787.004,104287.428,-13256.998,-187063.716,66801.005
2.38,09-22-2026 21:13:23:028,-112561.776,156948.138,157223.869,48963.463,117746.263,-15167.715,-185274.951,60728.885
2.384,09-22-2026 21:13:23:032,-123486.325,154998.619,155272.785,78389.982,97376.135,5031.288,-186673.857,82141.096
2.388,09-22-2026 21:13:23:036,-146197.888,150653.976,150924.656,103125.316,71549.722,19498.142,-188026.898,100996.626
2.392,09-22-2026 21:13:23:040,-149072.769,149874.169,150144.222,88198.821,76278.502,7487.924,-188187.428,91089.483
2.396,09-22-2026 21:13:23:044,-128948.6,153661.806,153934.899,55787.004,104287.428,-13256.998,-187063.716,66801.005
2.4,09-22-2026 21:13:23:048,-112561.776,156948.138,157223.869,48963.463,117746.263,-15167.715,-185297.884,60728.885
2.404,09-22-2026 21:13:23:052,-123259.097,155033.309,155307.341,78236.649,97408.187,4930.75,-186662.055,81869.12
2.408,09-22-2026 21:13:23:056,-146083.67,150639.85,150910.395,103036.803,71748.384,19440.251,-188001.819,101049.599
2.412,09-22-2026 21:13:23:060,-148972.857,149907.607,150177.571,88071.193,76513.776,7394.628,-188150.682,91139.685
2.416,09-22-2026 21:13:23:064,-129037.47,153681.475,153954.435,55574.439,104372.991,-13137.685,-187009.402,66844.412
2.42,09-22-2026 21:13:23:068,-112569.107,157004.733,157280.33,48733.017,117936.029,-15327.798,-185198.24,60770.593
2.424,09-22-2026 21:13:23:072,-123259.097,155089.635,155307.341,78236.649,97408.187,4930.75,-186637.245,81869.12
2.428,09-22-2026 21:13:23:076,-146083.67,150639.85,150910.395,103036.803,71748.384,19440.251,-188001.819,101049.599
2.432,09-22-2026 21:13:23:080,-148972.857,149907.607,150177.571,88071.193,76513.776,7394.628,-188150.682,91139.685
2.436,09-22-2026 21:13:23:084,-129037.47,153681.475,153954.435,55574.439,104372.991,-13137.685,-186984.591,66844.412
2.44,09-22-2026 21:13:23:088,-112280.188,157004.733,157280.33,48733.017,118302.598,-15327.798,-185074.188,60450.919
2.444,09-22-2026 21:13:23:092,-123259.097,155089.635,155363.712,78236.649,97408.187,4930.75,-186612.435,81869.12
2.448,09-22-2026 21:13:23:096,-146083.67,150696.176,150966.767,103036.803,71748.384,19440.251,-188026.629,101049.599
2.452,09-22-2026 21:13:23:100,-148972.857,149907.607,150177.571,88071.193,76513.776,7394.628,-188200.303,90820.01
2.456,09-22-2026 21:13:23:104,-128748.551,153737.802,154010.806,55574.439,104372.991,-13411.449,-187034.212,66524.737
2.46,09-22-2026 21:13:23:108,-112280.188,157061.059,157336.701,48733.017,118302.598,-15327.798,-185123.808,60450.919
2.464,09-22-2026 21:13:23:112,-123259.097,155089.635,155363.712,78236.649,97774.756,4930.75,-186637.245,81549.446
2.468,09-22-2026 21:13:23:116,-146083.67,150696.176,150966.767,103036.803,71748.384,19440.251,-188026.629,101049.599
2.472,09-22-2026 21:13:23:120,-148972.857,149963.933,150233.942,88071.193,76513.776,7394.628,-188200.303,90820.01
2.476,09-22-2026 21:13:23:124,-128748.551,153737.802,154010.806,55574.439,104739.559,-13411.449,-187034.212,66524.737
2.48,09-22-2026 21:13:23:128,-112280.188,157061.059,157336.701,48733.017,118302.598,-15327.798,-185049.377,60450.919
2.484,09-22-2026 21:13:23:132,-123259.097,155145.962,155363.712,78236.649,97774.756,4930.75,-186662.055,81549.446
2.488,09-22-2026 21:13:23:136,-145794.752,150752.503,151023.138,103036.803,72114.953,19440.251,-188076.25,100729.925
2.492,09-22-2026 21:13:23:140,-148972.857,149963.933,150233.942,88071.193,76513.776,7394.628,-188200.303,90820.01
2.496,09-22-2026 21:13:23:144,-128748.551,153794.128,154067.177,55574.439,104739.559,-13411.449,-187034.212,66524.737
2.5,09-22-2026 21:13:23:148,-112280.188,157061.059,157336.701,48733.017,118302.598,-15327.798,-185049.377,60450.919
2.504,09-22-2026 21:13:23:152,-122937.634,155146.006,155420.173,77917.734,97866.04,4803.3,-186633.848,81656.555
2.508,09-22-2026 21:13:23:156,-145843.434,150769.982,150984.514,103243.065,72206.238,19680.711,-188044.511,100855.81
2.512,09-22-2026 21:13:23:160,-149032.849,149984.542,150254.595,88219.564,76605.061,7282.869,-188217.245,90936.195
2.516,09-22-2026 21:13:23:164,-128736.571,153799.537,154072.631,55597.103,104830.844,-13380.201,-187036.894,66617.139
2.52,09-22-2026 21:13:23:168,-112209.602,157109.607,157385.338,48729.217,118760.451,-15308.754,-184906.505,60537.375
2.524,09-22-2026 21:13:23:172,-122937.634,155202.109,155420.173,78346.977,97866.04,4803.3,-186633.848,81656.555
2.528,09-22-2026 21:13:23:176,-145843.434,150769.982,151040.661,103243.065,72206.238,19405.203,-188073.3,100855.81
2.532,09-22-2026 21:13:23:180,-149032.849,149984.542,150254.595,88219.564,76605.061,7558.376,-188217.245,90936.195
2.536,09-22-2026 21:13:23:184,-128736.571,153799.537,154072.631,55597.103,104830.844,-13380.201,-187008.105,66617.139
2.54,09-22-2026 21:13:23:188,-112209.602,157109.607,157385.338,48729.217,118760.451,-15308.754,-184848.927,60537.375
2.544,09-22-2026 21:13:23:192,-122937.634,155202.109,155476.32,78346.977,98232.609,4803.3,-186576.269,81656.555
2.548,09-22-2026 21:13:23:196,-145843.434,150769.982,151040.661,103243.065,72206.238,19680.711,-188015.722,101175.797
2.552,09-22-2026 21:13:23:200,-149032.849,149984.542,150254.595,88219.564,76971.629,7558.376,-188188.456,91256.182
2.556,09-22-2026 21:13:23:204,-128736.571,153799.537,154072.631,55597.103,104830.844,-13104.694,-186921.738,66937.127
2.56,09-22-2026 21:13:23:208,-112209.602,157109.607,157385.338,48729.217,118760.451,-15308.754,-184676.192,60537.375
2.564,09-22-2026 21:13:23:212,-123227.581,155202.109,155476.32,78346.977,98232.609,5078.808,-186518.691,81656.555
2.568,09-22-2026 21:13:23:216,-145843.434,150769.982,151040.661,103243.065,72206.238,19680.711,-187986.933,101175.797
2.572,09-22-2026 21:13:23:220,-149032.849,149984.542,150254.595,88219.564,76971.629,7558.376,-188159.667,91256.182
2.576,09-22-2026 21:13:23:224,-128736.571,153799.537,154072.631,55597.103,104830.844,-13104.694,-186921.738,66937.127
2.58,09-22-2026 21:13:23:228,-112209.602,157109.607,157385.338,48729.217,118760.451,-15308.754,-184618.614,60857.363
2.584,09-22-2026 21:13:23:232,-122937.634,155202.109,155476.32,78346.977,98232.609,5078.808,-186489.902,81976.543
2.588,09-22-2026 21:13:23:236,-145843.434,150769.982,151040.661,103243.065,72206.238,19680.711,-187958.144,101175.797
2.592,09-22-2026 21:13:23:240,-149032.849,149984.542,150254.595,88219.564,76971.629,7558.376,-188130.878,91256.182
2.596,09-22-2026 21:13:23:244,-128736.571,153799.537,154072.631,55597.103,105197.412,-13104.694,-186892.949,66937.127
2.6,09-22-2026 21:13:23:248,-112209.602,157109.607,157385.338,48729.217,118760.451,-15308.754,-184561.036,60857.363
2.604,09-22-2026 21:13:23:252,-122924.536,155224.103,155498.315,78376.168,98396.76,5084.754,-186445.244,81961.969
2.608,09-22-2026 21:13:23:256,-145936.283,150781.381,151052.061,103298.185,72529.086,19653.487,-187977.322,101118.308
2.612,09-22-2026 21:13:23:260,-149140.45,149994.063,150264.117,88259.037,76901.087,7558.689,-188127.525,91220.867
2.616,09-22-2026 21:13:23:264,-128750.295,153818.179,154091.272,55602.602,104954.762,-13057.442,-186835.773,66956.17
2.62,09-22-2026 21:13:23:268,-112146.883,157136.161,157411.892,48727.563,118799.432,-15256.496,-184432.514,60570.724
2.624,09-22-2026 21:13:23:272,-122924.536,155224.103,155498.315,78376.168,98396.76,5084.754,-186445.244,81642.697
2.628,09-22-2026 21:13:23:276,-145936.283,150781.381,151052.061,103298.185,72529.086,19653.487,-187977.322,101118.308
2.632,09-22-2026 21:13:23:280,-149140.45,149994.063,150264.117,88259.037,76901.087,7558.689,-188157.566,91220.867
2.636,09-22-2026 21:13:23:284,-128750.295,153818.179,154091.272,55602.602,104954.762,-13332.324,-186895.855,66956.17
2.64,09-22-2026 21:13:23:288,-112146.883,157136.161,157411.892,48727.563,118799.432,-15256.496,-184492.595,60570.724
2.644,09-22-2026 21:13:23:292,-122924.536,155224.103,155498.315,78376.168,98396.76,5084.754,-186445.244,81642.697
2.648,09-22-2026 21:13:23:296,-145936.283,150781.381,151052.061,103298.185,72529.086,19653.487,-187977.322,101118.308
2.652,09-22-2026 21:13:23:300,-149140.45,149994.063,150264.117,88259.037,76901.087,7558.689,-188127.525,91220.867
2.656,09-22-2026 21:13:23:304,-128750.295,153818.179,154091.272,55602.602,104954.762,-13057.442,-186835.773,66956.17
2.66,09-22-2026 21:13:23:308,-112146.883,157136.161,157411.892,48727.563,118799.432,-15256.496,-184342.391,60570.724
2.664,09-22-2026 21:13:23:312,-123215.824,155224.103,155498.315,78376.168,98396.76,5084.754,-186415.203,81642.697
2.668,09-22-2026 21:13:23:316,-145936.283,150781.381,151052.061,103298.185,72529.086,19653.487,-187977.322,101118.308
2.672,09-22-2026 21:13:23:320,-149140.45,149994.063,150264.117,88688.727,76901.087,7558.689,-188127.525,91220.867
2.676,09-22-2026 21:13:23:324,-128750.295,153818.179,154091.272,55602.602,104954.762,-13332.324,-186895.855,66956.17
2.68,09-22-2026 21:13:23:328,-112146.883,157136.161,157411.892,48727.563,118799.432,-15256.496,-184552.677,60570.724
2.684,09-22-2026 21:13:23:332,-122924.536,155224.103,155498.315,78376.168,98396.76,5084.754,-186475.284,81642.697
2.688,09-22-2026 21:13:23:336,-145936.283,150781.381,151052.061,103298.185,72529.086,19653.487,-188007.362,101118.308
2.692,09-22-2026 21:13:23:340,-149140.45,149994.063,150264.117,88688.727,76901.087,7558.689,-188157.566,91220.867
2.696,09-22-2026 21:13:23:344,-129041.583,153818.179,154091.272,55602.602,104954.762,-13057.442,-186895.855,66956.17
2.7,09-22-2026 21:13:23:348,-112146.883,157136.161,157411.892,48727.563,118799.432,-15256.496,-184462.554,60570.724
2.704,09-22-2026 21:13:23:352,-123241.886,155195.985,155469.794,78351.939,98281.961,5026.773,-186473.407,81603.269
2.708,09-22-2026 21:13:23:356,-146070.438,150788.578,151058.9,103310.255,72388.896,19616.83,-187982.641,101087.061
2.712,09-22-2026 21:13:23:360,-149289.849,149941,150210.652,88679.518,76765.189,7504.33,-188153.498,91185.461
2.716,09-22-2026 21:13:23:364,-129095.361,153783.355,154056.046,55545.203,104846.401,-13141.976,-186900.549,66910.573
2.72,09-22-2026 21:13:23:368,-112412.958,157117.162,157392.491,48660.15,118704.661,-15344.249,-184565.507,60522.444
2.724,09-22-2026 21:13:23:372,-123241.886,155195.985,155469.794,78351.939,98281.961,5026.773,-186473.407,81922.675
2.728,09-22-2026 21:13:23:376,-146070.438,150732.073,151002.351,103310.255,72388.896,19616.83,-188011.117,101087.061
2.732,09-22-2026 21:13:23:380,-149289.849,149941,150210.652,88679.518,76765.189,7504.33,-188181.974,91185.461
2.736,09-22-2026 21:13:23:384,-129095.361,153783.355,154056.046,55975.518,104846.401,-13141.976,-186900.549,66910.573
2.74,09-22-2026 21:13:23:388,-112412.958,157117.162,157392.491,48660.15,118704.661,-15344.249,-184565.507,60522.444
2.744,09-22-2026 21:13:23:392,-123241.886,155195.985,155469.794,78351.939,98281.961,5026.773,-186501.883,81603.269
2.748,09-22-2026 21:13:23:396,-146363.112,150732.073,151002.351,103310.255,72388.896,19616.83,-188011.117,101087.061
2.752,09-22-2026 21:13:23:400,-149582.523,149941,150210.652,88679.518,76765.189,7504.33,-188181.974,91185.461
2.756,09-22-2026 21:13:23:404,-129388.035,153726.849,153999.496,55975.518,104846.401,-13141.976,-186929.025,66910.573
2.76,09-22-2026 21:13:23:408,-112412.958,157117.162,157392.491,48660.15,118704.661,-15344.249,-184593.983,60522.444
2.764,09-22-2026 21:13:23:412,-123534.56,155195.985,155469.794,78351.939,98281.961,5026.773,-186501.883,81603.269
2.768,09-22-2026 21:13:23:416,-146363.112,150732.073,151002.351,103310.255,72388.896,19616.83,-188011.117,101087.061
2.772,09-22-2026 21:13:23:420,-149582.523,149941,150210.652,88679.518,76765.189,7504.33,-188181.974,91185.461
2.776,09-22-2026 21:13:23:424,-129388.035,153783.355,154056.046,55545.203,104846.401,-13417.26,-186957.501,66910.573
2.78,09-22-2026 21:13:23:428,-112412.958,157117.162,157392.491,48660.15,118704.661,-15344.249,-184707.887,60522.444
2.784,09-22-2026 21:13:23:432,-123241.886,155195.985,155469.794,77921.623,98281.961,4751.489,-186530.359,81603.269
2.788,09-22-2026 21:13:23:436,-146363.112,150732.073,151002.351,103310.255,72388.896,19616.83,-188011.117,101087.061
2.792,09-22-2026 21:13:23:440,-149582.523,149941,150210.652,88679.518,76765.189,7504.33,-188181.974,91185.461
2.796,09-22-2026 21:13:23:444,-129388.035,153726.849,153999.496,55975.518,104846.401,-13141.976,-186929.025,66910.573
2.8,09-22-2026 21:13:23:448,-112412.958,157117.162,157392.491,48660.15,118704.661,-15344.249,-184622.459,60522.444
2.804,09-22-2026 21:13:23:452,-123531.207,155158.121,155427.728,78348.586,98139.179,4997.314,-186520.837,81596.742
2.808,09-22-2026 21:13:23:456,-146412.062,150736.767,151006.374,103332.83,72182.634,19603.955,-188032.933,101154.161
2.812,09-22-2026 21:13:23:460,-149932.194,149886.507,150156.114,88686.894,76569.656,7753.284,-188197.889,91535.758
2.816,09-22-2026 21:13:23:464,-129398.093,153741.02,154010.627,55948.92,104719.711,-13192.089,-186960.719,66848.524
2.82,09-22-2026 21:13:23:468,-112677.468,157085.378,157354.985,48625.952,118611.946,-15396.865,-184733.815,60756.869
2.824,09-22-2026 21:13:23:472,-123531.207,155214.805,155484.412,77917.824,98139.179,4721.717,-186520.837,81596.742
2.828,09-22-2026 21:13:23:476,-146412.062,150736.767,151006.374,103332.83,72182.634,19603.955,-188032.933,101154.161
2.832,09-22-2026 21:13:23:480,-149638.849,149886.507,150156.114,88686.894,76569.656,7477.687,-188197.889,91215.145
2.836,09-22-2026 21:13:23:484,-129398.093,153741.02,154010.627,55948.92,104719.711,-13192.089,-186960.719,66848.524
2.84,09-22-2026 21:13:23:488,-112677.468,157085.378,157354.985,48625.952,118611.946,-15396.865,-184706.323,60436.256
2.844,09-22-2026 21:13:23:492,-123531.207,155158.121,155427.728,78348.586,98139.179,4997.314,-186548.33,81596.742
2.848,09-22-2026 21:13:23:496,-146412.062,150736.767,151006.374,103332.83,72182.634,19603.955,-188032.933,101154.161
2.852,09-22-2026 21:13:23:500,-149932.194,149886.507,150156.114,88686.894,76569.656,7753.284,-188197.889,91535.758
2.856,09-22-2026 21:13:23:504,-129398.093,153741.02,154010.627,55948.92,104719.711,-13192.089,-186988.212,66848.524
2.86,09-22-2026 21:13:23:508,-112677.468,157085.378,157354.985,48625.952,118611.946,-15396.865,-184788.8,60436.256
2.864,09-22-2026 21:13:23:512,-123531.207,155158.121,155427.728,77917.824,98139.179,4721.717,-186548.33,81596.742
2.868,09-22-2026 21:13:23:516,-146705.407,150680.083,150949.69,103332.83,72182.634,19603.955,-188032.933,101154.161
2.872,09-22-2026 21:13:23:520,-149932.194,149886.507,150156.114,88686.894,76569.656,7477.687,-188197.889,91215.145
2.876,09-22-2026 21:13:23:524,-129691.437,153684.336,154010.627,55948.92,104719.711,-13192.089,-186960.719,66848.524
2.88,09-22-2026 21:13:23:528,-112677.468,157085.378,157354.985,48625.952,118611.946,-15396.865,-184706.323,60436.256
2.884,09-22-2026 21:13:23:532,-123531.207,155158.121,155427.728,78348.586,98139.179,4997.314,-186520.837,81596.742
2.888,09-22-2026 21:13:23:536,-146705.407,150736.767,150949.69,103332.83,72182.634,19603.955,-188032.933,101154.161
2.892,09-22-2026 21:13:23:540,-149932.194,149886.507,150156.114,88686.894,76204.071,7753.284,-188197.889,91215.145
2.896,09-22-2026 21:13:23:544,-129691.437,153741.02,154010.627,55518.157,104719.711,-13192.089,-186988.212,66848.524
2.9,09-22-2026 21:13:23:548,-112677.468,157085.378,157354.985,48625.952,118611.946,-15396.865,-184788.8,60756.869
2.904,09-22-2026 21:13:23:552,-123552.799,155142.564,155411.992,77894.131,98029.968,4955.158,-186549.134,81660.4
2.908,09-22-2026 21:13:23:556,-146779.972,150710.75,150980.178,103348.7,72028.988,19580.754,-188027.568,101209.638
2.912,09-22-2026 21:13:23:560,-150014.135,149858.478,150127.906,88679.965,76423.52,7714.705,-188194.938,91595.258
2.916,09-22-2026 21:13:23:564,-129727.111,153722.111,153991.539,55891.029,104621.766,-13257.848,-186967.559,67238.831
2.92,09-22-2026 21:13:23:568,-112968.265,157074.381,157343.809,48556.661,118537.783,-15465.485,-184763.856,60829.244
2.924,09-22-2026 21:13:23:572,-123552.799,155199.382,155411.992,77894.131,98029.968,4679.204,-186521.239,81980.879
2.928,09-22-2026 21:13:23:576,-146779.972,150710.75,150980.178,103348.7,72028.988,19580.754,-188027.568,101209.638
2.932,09-22-2026 21:13:23:580,-150014.135,149858.478,150127.906,88679.965,76423.52,7714.705,-188222.833,91595.258
2.936,09-22-2026 21:13:23:584,-129727.111,153722.111,153991.539,55891.029,104621.766,-13257.848,-186939.664,67238.831
2.94,09-22-2026 21:13:23:588,-112968.265,157074.381,157343.809,48556.661,118537.783,-15465.485,-184680.171,60508.765
2.944,09-22-2026 21:13:23:592,-123846.814,155142.564,155411.992,78325.564,98029.968,4955.158,-186521.239,81660.4
2.948,09-22-2026 21:13:23:596,-146779.972,150710.75,150980.178,103348.7,72028.988,19580.754,-188055.463,101209.638
2.952,09-22-2026 21:13:23:600,-150308.15,149858.478,150127.906,88679.965,76057.309,7714.705,-188222.833,91274.779
2.956,09-22-2026 21:13:23:604,-129727.111,153722.111,153991.539,55891.029,104621.766,-13257.848,-186995.454,67238.831
2.96,09-22-2026 21:13:23:608,-112968.265,157074.381,157343.809,48556.661,118537.783,-15465.485,-184819.646,60829.244
2.964,09-22-2026 21:13:23:612,-123846.814,155142.564,155411.992,77894.131,98029.968,4679.204,-186549.134,81980.879
2.968,09-22-2026 21:13:23:616,-147073.987,150710.75,150980.178,103348.7,72028.988,19580.754,-188027.568,101209.638
2.972,09-22-2026 21:13:23:620,-150308.15,149858.478,150127.906,88679.965,76423.52,7438.75,-188222.833,91595.258
2.976,09-22-2026 21:13:23:624,-130021.126,153665.293,153934.721,55891.029,104621.766,-13257.848,-186967.559,67238.831
2.98,09-22-2026 21:13:23:628,-112968.265,157074.381,157343.809,48556.661,118537.783,-15465.485,-184708.066,60508.765
2.984,09-22-2026 21:13:23:632,-123846.814,155142.564,155411.992,78325.564,98029.968,4679.204,-186549.134,81660.4
2.988,09-22-2026 21:13:23:636,-147073.987,150710.75,150980.178,103348.7,72028.988,19580.754,-188055.463,101209.638
2.992,09-22-2026 21:13:23:640,-150308.15,149858.478,150127.906,88679.965,76057.309,7714.705,-188222.833,91274.779
2.996,09-22-2026 21:13:23:644,-130021.126,153665.293,153934.721,55891.029,104621.766,-13257.848,-187023.349,66918.351
3,09-22-2026 21:13:23:648,-112968.265,157074.381,157343.809,48556.661,118537.783,-15465.485,-184903.331,60508.765
3.004,09-22-2026 21:13:23:652,-123898.312,155163.932,155433.316,77852.646,98011.148,4892.752,-186578.639,81370.542
3.008,09-22-2026 21:13:23:656,-147234.964,150657.642,150927.025,103370.515,72003.82,19575.211,-188043.93,100925.234
3.012,09-22-2026 21:13:23:660,-150484.371,149802.017,150071.4,88665.302,76399.425,7663.027,-188206.74,91308.173
3.016,09-22-2026 21:13:23:664,-130101.726,153680.85,153950.233,55794.827,104238.254,-13114.037,-186985.664,66944.95
3.02,09-22-2026 21:13:23:668,-113263.889,157046.307,157315.69,48442.221,118523.969,-15607.284,-184787.728,60213.007
3.024,09-22-2026 21:13:23:672,-124193.713,155106.891,155376.274,78285.152,98011.148,4892.752,-186551.504,81370.542
3.028,09-22-2026 21:13:23:676,-147234.964,150657.642,150927.025,103370.515,72003.82,19575.211,-188043.93,100925.234
3.032,09-22-2026 21:13:23:680,-150779.772,149802.017,150071.4,88665.302,76399.425,7663.027,-188206.74,91308.173
3.036,09-22-2026 21:13:23:684,-130101.726,153680.85,153950.233,55794.827,104604.555,-13391.064,-186985.664,66624.381
3.04,09-22-2026 21:13:23:688,-113263.889,157046.307,157315.69,48442.221,118523.969,-15607.284,-184841.998,60533.575
3.044,09-22-2026 21:13:23:692,-124193.713,155163.932,155433.316,77852.646,98011.148,4615.725,-186551.504,81691.111
3.048,09-22-2026 21:13:23:696,-147234.964,150657.642,150927.025,103370.515,72003.82,19575.211,-188043.93,100925.234
3.052,09-22-2026 21:13:23:700,-150779.772,149802.017,150071.4,88665.302,76033.124,7663.027,-188206.74,91308.173
3.056,09-22-2026 21:13:23:704,-130397.127,153623.808,153893.191,55794.827,104238.254,-13391.064,-186958.529,66944.95
3.06,09-22-2026 21:13:23:708,-113263.889,157046.307,157315.69,48442.221,118523.969,-15607.284,-184760.593,60213.007
3.064,09-22-2026 21:13:23:712,-124193.713,155106.891,155376.274,77852.646,98011.148,4615.725,-186524.369,81370.542
3.068,09-22-2026 21:13:23:716,-147234.964,150657.642,150927.025,103370.515,72003.82,19575.211,-188016.795,100925.234
3.072,09-22-2026 21:13:23:720,-150779.772,149802.017,150071.4,88665.302,76033.124,7663.027,-188206.74,90987.604
3.076,09-22-2026 21:13:23:724,-130397.127,153623.808,153893.191,55794.827,104604.555,-13391.064,-186985.664,66624.381
3.08,09-22-2026 21:13:23:728,-113263.889,157046.307,157315.69,48442.221,118523.969,-15607.284,-184841.998,60213.007
3.084,09-22-2026 21:13:23:732,-124193.713,155106.891,155376.274,77852.646,98011.148,4615.725,-186551.504,81049.973
3.088,09-22-2026 21:13:23:736,-147530.365,150657.642,150927.025,103370.515,72003.82,19575.211,-188043.93,100604.665
3.092,09-22-2026 21:13:23:740,-150779.772,149802.017,150071.4,88665.302,76033.124,7663.027,-188206.74,90987.604
3.096,09-22-2026 21:13:23:744,-130397.127,153623.808,153893.191,55794.827,104604.555,-13391.064,-186985.664,66624.381
3.1,09-22-2026 21:13:23:748,-113559.289,157046.307,157315.69,48442.221,118523.969,-15607.284,-184841.998,60213.007
3.104,09-22-2026 21:13:23:752,-124178.871,155134.875,155404.303,77838.52,98109.764,4559.13,-186540.149,81103.305
3.108,09-22-2026 21:13:23:756,-147557.902,150614.458,150883.886,103472.439,72073.871,19569.31,-188004.188,100682.539
3.112,09-22-2026 21:13:23:760,-150813.21,149756.151,150025.579,88700.35,76107.6,7616.759,-188179.873,91053.407
3.116,09-22-2026 21:13:23:764,-130393.55,153589.923,153859.351,55680.386,104343.71,-13230.713,-186920.799,66980.579
3.12,09-22-2026 21:13:23:768,-113525.136,157023.151,157292.578,48294.341,118645.116,-15732.409,-184636.898,60240.186
3.124,09-22-2026 21:13:23:772,-124474.809,155077.655,155347.083,77838.52,98109.764,4837.096,-186481.587,81424.276
3.128,09-22-2026 21:13:23:776,-147557.902,150614.458,150883.886,103472.439,72073.871,19569.31,-188004.188,100682.539
3.132,09-22-2026 21:13:23:780,-151109.147,149756.151,150025.579,88700.35,76107.6,7616.759,-188179.873,91053.407
3.136,09-22-2026 21:13:23:784,-130393.55,153647.143,153916.571,55680.386,104343.71,-13508.679,-186950.08,66659.607
3.14,09-22-2026 21:13:23:788,-113525.136,157023.151,157292.578,48294.341,118645.116,-15732.409,-184754.021,59919.215
3.144,09-22-2026 21:13:23:792,-124474.809,155134.875,155404.303,77838.52,98109.764,4559.13,-186481.587,81103.305
3.148,09-22-2026 21:13:23:796,-147557.902,150614.458,150883.886,103472.439,72073.871,19569.31,-187974.908,100682.539
3.152,09-22-2026 21:13:23:800,-151109.147,149756.151,150025.579,88700.35,76474.303,7616.759,-188150.592,91053.407
3.156,09-22-2026 21:13:23:804,-130689.488,153589.923,153859.351,55680.386,104343.71,-13230.713,-186862.238,66338.636
3.16,09-22-2026 21:13:23:808,-113525.136,157023.151,157292.578,48294.341,118645.116,-15732.409,-184490.494,59919.215
3.164,09-22-2026 21:13:23:812,-124474.809,155077.655,155347.083,77838.52,98109.764,4559.13,-186423.026,81103.305
3.168,09-22-2026 21:13:23:816,-147557.902,150614.458,150883.886,103472.439,72073.871,19569.31,-187974.908,100682.539
3.172,09-22-2026 21:13:23:820,-151109.147,149756.151,150025.579,88700.35,76107.6,7616.759,-188121.311,91053.407
3.176,09-22-2026 21:13:23:824,-130689.488,153589.923,153859.351,55680.386,104710.413,-13508.679,-186891.518,66338.636
3.18,09-22-2026 21:13:23:828,-113525.136,157023.151,157292.578,48294.341,118645.116,-15732.409,-184578.336,59919.215
3.184,09-22-2026 21:13:23:832,-124474.809,155134.875,155404.303,77838.52,98476.466,4559.13,-186393.745,80782.334
3.188,09-22-2026 21:13:23:836,-147853.839,150614.458,150883.886,103472.439,72073.871,19569.31,-187945.627,100682.539
3.192,09-22-2026 21:13:23:840,-151109.147,149756.151,150025.579,88700.35,76474.303,7616.759,-188121.311,90732.436
3.196,09-22-2026 21:13:23:844,-130689.488,153589.923,153859.351,55680.386,104343.71,-13230.713,-186832.957,66338.636
3.2,09-22-2026 21:13:23:848,-113525.136,157023.151,157292.578,48294.341,118645.116,-15732.409,-184461.213,59919.215
3.204,09-22-2026 21:13:23:852,-124458.313,155101.213,155370.731,77842.498,98292.422,4493.908,-186380.513,81188.107
3.208,09-22-2026 21:13:23:856,-147805.559,150580.797,150850.314,103523.893,72202.572,19508.915,-187937.982,100518.79
3.212,09-22-2026 21:13:23:860,-151351.977,149722.49,149992.007,88724.445,76244.661,7552.52,-188087.739,90853.449
3.216,09-22-2026 21:13:23:864,-130664.543,153556.261,153882.999,55643.327,104539.288,-13301.657,-186859.734,66367.917
3.22,09-22-2026 21:13:23:868,-113819.061,156989.489,157259.006,48243.603,118870.332,-15804.159,-184523.53,59924.356
3.224,09-22-2026 21:13:23:872,-124458.313,155101.213,155370.731,77842.498,98292.422,4493.908,-186380.513,80865.929
3.228,09-22-2026 21:13:23:876,-147805.559,150580.797,150850.314,103523.893,72202.572,19508.915,-187908.031,100518.79
3.232,09-22-2026 21:13:23:880,-151351.977,149722.49,149992.007,88724.445,76244.661,7552.52,-188087.739,90853.449
3.236,09-22-2026 21:13:23:884,-130960.078,153556.261,153825.778,55643.327,104539.288,-13301.657,-186829.783,66367.917
3.24,09-22-2026 21:13:23:888,-113819.061,156989.489,157259.006,48243.603,118870.332,-15804.159,-184553.481,59602.178
3.244,09-22-2026 21:13:23:892,-124458.313,155101.213,155370.731,77842.498,98292.422,4493.908,-186410.464,80865.929
3.248,09-22-2026 21:13:23:896,-147805.559,150580.797,150850.314,103523.893,72202.572,19508.915,-187937.982,100518.79
3.252,09-22-2026 21:13:23:900,-151351.977,149722.49,149992.007,88724.445,76612.124,7552.52,-188087.739,90531.271
3.256,09-22-2026 21:13:23:904,-130960.078,153556.261,153825.778,55643.327,104539.288,-13579.713,-186769.88,66045.739
3.26,09-22-2026 21:13:23:908,-113819.061,156989.489,157259.006,48243.603,118870.332,-15804.159,-184373.773,59602.178
3.264,09-22-2026 21:13:23:912,-124753.848,155101.213,155313.51,77842.498,98292.422,4493.908,-186350.562,80865.929
3.268,09-22-2026 21:13:23:916,-147805.559,150580.797,150850.314,103523.893,72202.572,19508.915,-187937.982,100196.612
3.272,09-22-2026 21:13:23:920,-151351.977,149722.49,149992.007,88724.445,76612.124,7552.52,-188087.739,90531.271
3.276,09-22-2026 21:13:23:924,-130960.078,153556.261,153825.778,55643.327,104906.75,-13579.713,-186829.783,66045.739
3.28,09-22-2026 21:13:23:928,-113819.061,156989.489,157259.006,48243.603,118870.332,-15804.159,-184463.627,59602.178
3.284,09-22-2026 21:13:23:932,-124458.313,155101.213,155370.731,77842.498,98292.422,4493.908,-186350.562,80543.751
3.288,09-22-2026 21:13:23:936,-148101.094,150580.797,150850.314,103523.893,72202.572,19508.915,-187908.031,100518.79
3.292,09-22-2026 21:13:23:940,-151351.977,149722.49,149992.007,88724.445,76612.124,7552.52,-188087.739,90531.271
3.296,09-22-2026 21:13:23:944,-130960.078,153556.261,153825.778,55643.327,104906.75,-13579.713,-186769.88,66045.739
3.3,09-22-2026 21:13:23:948,-113819.061,156989.489,157259.006,48243.603,118870.332,-15804.159,-184283.919,59602.178
3.304,09-22-2026 21:13:23:952,-124746.472,155070.502,155339.841,77819.431,98494.661,4687.965,-186308.719,80754.126
3.308,09-22-2026 21:13:23:956,-148035.291,150572.437,150841.776,103545.663,72465.115,19439.133,-187886.395,100265.187
3.312,09-22-2026 21:13:23:960,-151618.186,149649.757,149919.096,89156.415,76497.862,7471.205,-188041.069,90669.583
3.316,09-22-2026 21:13:23:964,-131016.538,153571.147,153840.486,55581.502,104727.087,-13403.089,-186772.741,66360.72
3.32,09-22-2026 21:13:23:968,-113997.786,156973.53,157242.868,48168.859,119025.006,-15908.005,-184359.826,59643.797
3.324,09-22-2026 21:13:23:972,-124746.472,155070.502,155339.841,77819.431,98494.661,4409.642,-186308.719,80754.126
3.328,09-22-2026 21:13:23:976,-148035.291,150572.437,150841.776,103545.663,72465.115,19439.133,-187855.46,100265.187
3.332,09-22-2026 21:13:23:980,-151618.186,149649.757,149919.096,88720.377,76497.862,7471.205,-188041.069,90669.583
3.336,09-22-2026 21:13:23:984,-131016.538,153513.48,153782.818,55581.502,104727.087,-13403.089,-186710.872,66360.72
3.34,09-22-2026 21:13:23:988,-113997.786,156973.53,157242.868,48168.859,119025.006,-15908.005,-184143.282,59643.797
3.344,09-22-2026 21:13:23:992,-124746.472,155070.502,155339.841,77819.431,98494.661,4409.642,-186246.849,80754.126
3.348,09-22-2026 21:13:23:996,-148035.291,150572.437,150841.776,103545.663,72465.115,19439.133,-187855.46,100265.187
3.352,09-22-2026 21:13:24:000,-151916.76,149649.757,149919.096,89156.415,76864.475,7471.205,-188010.134,90989.437
3.356,09-22-2026 21:13:24:004,-131315.113,153513.48,153782.818,55581.502,104727.087,-13403.089,-186741.806,66360.72
3.36,09-22-2026 21:13:24:008,-113997.786,156973.53,157242.868,48168.859,119025.006,-15908.005,-184267.021,59643.797
3.364,09-22-2026 21:13:24:012,-124746.472,155070.502,155339.841,77819.431,98861.274,4409.642,-186246.849,80434.272
3.368,09-22-2026 21:13:24:016,-148333.865,150514.77,150784.108,103545.663,72465.115,19439.133,-187824.525,100265.187
3.372,09-22-2026 21:13:24:020,-151916.76,149649.757,149919.096,89156.415,76864.475,7471.205,-188010.134,90669.583
3.376,09-22-2026 21:13:24:024,-131315.113,153513.48,153782.818,56017.54,104727.087,-13403.089,-186679.937,66360.72
3.38,09-22-2026 21:13:24:028,-113997.786,156973.53,157242.868,48168.859,119025.006,-15908.005,-184112.347,59643.797
3.384,09-22-2026 21:13:24:032,-125045.046,155070.502,155339.841,77819.431,98861.274,4409.642,-186215.915,80754.126
3.388,09-22-2026 21:13:24:036,-148333.865,150514.77,150784.108,103545.663,72465.115,19439.133,-187824.525,100265.187
3.392,09-22-2026 21:13:24:040,-151916.76,149649.757,149919.096,89156.415,76864.475,7471.205,-187979.199,90669.583
3.396,09-22-2026 21:13:24:044,-131315.113,153513.48,153782.818,55581.502,105093.7,-13403.089,-186649.002,66040.866
3.4,09-22-2026 21:13:24:048,-114296.361,156973.53,157242.868,48168.859,119025.006,-15908.005,-184112.347,59643.797
3.404,09-22-2026 21:13:24:052,-125033.557,155033.085,155302.334,77829.892,98602.933,4400.701,-186184.354,80444.107
3.408,09-22-2026 21:13:24:056,-148360.732,150521.073,150790.322,103616.786,72659.084,19468.816,-187784.828,100430.232
3.412,09-22-2026 21:13:24:060,-152248.594,149595.532,149864.781,89193.608,76678.553,7470.132,-187941.738,90759.527
3.416,09-22-2026 21:13:24:064,-131313.951,153529.081,153798.33,55539.525,105180.246,-13457.807,-186655.082,66260.405
3.42,09-22-2026 21:13:24:068,-114267.169,156942.014,157211.263,48109.403,119065.686,-15969.159,-184113.152,59490.911
3.424,09-22-2026 21:13:24:072,-125033.557,155033.085,155302.334,77829.892,98602.933,4400.701,-186152.972,80444.107
3.428,09-22-2026 21:13:24:076,-148360.732,150521.073,150790.322,103616.786,72659.084,19468.816,-187784.828,100430.232
3.432,09-22-2026 21:13:24:080,-151949.528,149595.532,149864.781,89193.608,77043.96,7470.132,-187941.738,90759.527
3.436,09-22-2026 21:13:24:084,-131613.017,153471.235,153740.484,55976.591,104814.84,-13457.807,-186592.318,66260.405
3.44,09-22-2026 21:13:24:088,-114267.169,156942.014,157211.263,48109.403,119065.686,-15969.159,-183987.625,59490.911
3.444,09-22-2026 21:13:24:092,-125033.557,155033.085,155302.334,77829.892,98602.933,4400.701,-186152.972,80766.464
3.448,09-22-2026 21:13:24:096,-148360.732,150521.073,150790.322,103616.786,72659.084,19468.816,-187753.446,100430.232
3.452,09-22-2026 21:13:24:100,-152248.594,149595.532,149864.781,89193.608,77043.96,7470.132,-187910.356,91081.883
3.456,09-22-2026 21:13:24:104,-131613.017,153471.235,153740.484,55539.525,105180.246,-13457.807,-186623.7,66260.405
3.46,09-22-2026 21:13:24:108,-114267.169,156942.014,157211.263,48109.403,119065.686,-15969.159,-184019.006,59490.911
3.464,09-22-2026 21:13:24:112,-125033.557,155033.085,155302.334,77829.892,98602.933,4400.701,-186121.59,80444.107
3.468,09-22-2026 21:13:24:116,-148659.798,150521.073,150790.322,103616.786,72659.084,19468.816,-187753.446,100430.232
3.472,09-22-2026 21:13:24:120,-152248.594,149595.532,149864.781,89193.608,77043.96,7470.132,-187941.738,90759.527
3.476,09-22-2026 21:13:24:124,-131613.017,153471.235,153740.484,55976.591,104814.84,-13457.807,-186592.318,66260.405
3.48,09-22-2026 21:13:24:128,-114267.169,156942.014,157211.263,48109.403,119065.686,-15969.159,-183956.243,59490.911
3.484,09-22-2026 21:13:24:132,-125332.624,155033.085,155302.334,77829.892,98602.933,4400.701,-186121.59,80444.107
3.488,09-22-2026 21:13:24:136,-148659.798,150521.073,150790.322,103616.786,72659.084,19468.816,-187753.446,100430.232
3.492,09-22-2026 21:13:24:140,-152248.594,149595.532,149864.781,89193.608,76678.553,7470.132,-187910.356,90759.527
3.496,09-22-2026 21:13:24:144,-131613.017,153471.235,153740.484,55539.525,104814.84,-13736.846,-186592.318,66260.405
3.5,09-22-2026 21:13:24:148,-114267.169,156942.014,157211.263,48109.403,119065.686,-15969.159,-183956.243,59490.911
3.504,09-22-2026 21:13:24:152,-125275.135,155039.031,155307.922,77786.351,98579.374,4333.556,-186078.988,80551.753
3.508,09-22-2026 21:13:24:156,-148602.31,150458.577,150727.469,103567.97,72670.439,19404.086,-187704.541,100316.417
3.512,09-22-2026 21:13:24:160,-152490.172,149588.871,149857.762,89147.742,76684.499,7403.479,-187863.909,90920.102
3.516,09-22-2026 21:13:24:164,-131854.595,153415.579,153684.47,55937.52,104782.922,-13527.812,-186525.218,66295.274
3.52,09-22-2026 21:13:24:168,-114508.747,156894.405,157163.296,48071.942,119014.59,-16039.567,-183847.837,59167.035
3.524,09-22-2026 21:13:24:172,-125275.135,154981.05,155249.942,77786.351,98579.374,4333.556,-186047.114,80551.753
3.528,09-22-2026 21:13:24:176,-148602.31,150458.577,150727.469,103567.97,72670.439,19404.086,-187704.541,100316.417
3.532,09-22-2026 21:13:24:180,-152490.172,149530.891,149799.782,89147.742,76684.499,7682.563,-187863.909,90920.102
3.536,09-22-2026 21:13:24:184,-131854.595,153415.579,153684.47,55937.52,104782.922,-13527.812,-186557.092,66295.274
3.54,09-22-2026 21:13:24:188,-114508.747,156894.405,157163.296,48071.942,119014.59,-16039.567,-183879.71,59491.045
3.544,09-22-2026 21:13:24:192,-125275.135,154981.05,155249.942,77786.351,98579.374,4333.556,-186015.241,80551.753
3.548,09-22-2026 21:13:24:196,-148901.376,150458.577,150727.469,103567.97,72670.439,19404.086,-187672.667,100316.417
3.552,09-22-2026 21:13:24:200,-152490.172,149530.891,149799.782,89147.742,76684.499,7682.563,-187832.035,90920.102
3.556,09-22-2026 21:13:24:204,-131854.595,153415.579,153684.47,55937.52,104782.922,-13527.812,-186525.218,66295.274
3.56,09-22-2026 21:13:24:208,-114508.747,156894.405,157163.296,48071.942,119014.59,-16039.567,-183943.457,59167.035
3.564,09-22-2026 21:13:24:212,-125275.135,154981.05,155249.942,77786.351,98944.288,4333.556,-186047.114,80227.742
3.568,09-22-2026 21:13:24:216,-148901.376,150458.577,150727.469,103567.97,72670.439,19404.086,-187672.667,100316.417
3.572,09-22-2026 21:13:24:220,-152490.172,149530.891,149799.782,89147.742,76684.499,7682.563,-187832.035,90920.102
3.576,09-22-2026 21:13:24:224,-132153.661,153357.599,153626.49,55937.52,104782.922,-13527.812,-186493.344,66295.274
3.58,09-22-2026 21:13:24:228,-114508.747,156894.405,157163.296,48071.942,119014.59,-16039.567,-183815.963,59167.035
3.584,09-22-2026 21:13:24:232,-125275.135,154981.05,155249.942,77786.351,98579.374,4333.556,-185983.367,80227.742
3.588,09-22-2026 21:13:24:236,-148901.376,150458.577,150727.469,103567.97,72670.439,19404.086,-187640.794,99992.406
3.592,09-22-2026 21:13:24:240,-152490.172,149530.891,149799.782,89147.742,76684.499,7682.563,-187800.162,90596.091
3.596,09-22-2026 21:13:24:244,-131854.595,153357.599,153684.47,55937.52,104782.922,-13527.812,-186525.218,65971.263
3.6,09-22-2026 21:13:24:248,-114508.747,156836.424,157105.316,48071.942,119014.59,-16039.567,-183911.584,59167.035
3.604,09-22-2026 21:13:24:252,-125414.833,154963.571,155232.329,77788.809,98811.921,4264.936,-186006.971,80042.759
3.608,09-22-2026 21:13:24:256,-148755.956,150413.203,150681.961,103660.104,72454.387,19398.23,-187648.125,100081.545
3.612,09-22-2026 21:13:24:260,-152646.143,149479.794,149748.552,89189.719,76847.309,7627.89,-187805.928,90385.358
3.616,09-22-2026 21:13:24:264,-131998.227,153330.106,153657.201,55863.983,104669.151,-13390.572,-186480.38,65821.685
3.62,09-22-2026 21:13:24:268,-114642.008,156830.389,157099.146,47971.046,118946.149,-16193.034,-183797.724,59034.355
3.624,09-22-2026 21:13:24:272,-125414.833,154963.571,155232.329,77788.809,98445.844,4264.936,-185975.41,80042.759
3.628,09-22-2026 21:13:24:276,-148755.956,150413.203,150681.961,103660.104,72454.387,19398.23,-187616.564,100081.545
3.632,09-22-2026 21:13:24:280,-152646.143,149479.794,149748.552,89189.719,76481.232,7627.89,-187805.928,90708.565
3.636,09-22-2026 21:13:24:284,-131998.227,153330.106,153598.863,55863.983,104669.151,-13670.819,-186480.38,65821.685
3.64,09-22-2026 21:13:24:288,-114642.008,156830.389,157099.146,47971.046,118946.149,-16193.034,-183892.406,59034.355
3.644,09-22-2026 21:13:24:292,-125115.588,154963.571,155232.329,77788.809,98811.921,4264.936,-185975.41,80042.759
3.648,09-22-2026 21:13:24:296,-148755.956,150413.203,150681.961,103660.104,72454.387,19398.23,-187616.564,100081.545
3.652,09-22-2026 21:13:24:300,-152646.143,149479.794,149748.552,89189.719,76481.232,7627.89,-187805.928,90708.565
3.656,09-22-2026 21:13:24:304,-131998.227,153330.106,153598.863,55863.983,104669.151,-13390.572,-186448.82,66144.892
3.66,09-22-2026 21:13:24:308,-114642.008,156830.389,157099.146,47971.046,118946.149,-16193.034,-183797.724,59034.355
3.664,09-22-2026 21:13:24:312,-125414.833,154905.233,155173.991,77788.809,98811.921,4264.936,-185943.849,80365.965
3.668,09-22-2026 21:13:24:316,-148755.956,150354.865,150623.623,103660.104,72454.387,19398.23,-187616.564,100081.545
3.672,09-22-2026 21:13:24:320,-152646.143,149421.456,149690.214,89189.719,76481.232,7627.89,-187774.368,90708.565
3.676,09-22-2026 21:13:24:324,-131998.227,153271.768,153540.525,55863.983,104669.151,-13670.819,-186480.38,66144.892
3.68,09-22-2026 21:13:24:328,-114642.008,156772.051,157040.808,47971.046,118946.149,-16193.034,-183923.967,59357.561
3.684,09-22-2026 21:13:24:332,-125414.833,154905.233,155173.991,77788.809,98445.844,4264.936,-185975.41,80365.965
3.688,09-22-2026 21:13:24:336,-149055.201,150354.865,150623.623,103660.104,72454.387,19398.23,-187585.004,100081.545
3.692,09-22-2026 21:13:24:340,-152646.143,149421.456,149690.214,89189.719,76481.232,7627.89,-187774.368,90708.565
3.696,09-22-2026 21:13:24:344,-132297.472,153271.768,153540.525,55863.983,104669.151,-13390.572,-186417.259,66144.892
3.7,09-22-2026 21:13:24:348,-114642.008,156772.051,157040.808,47971.046,118946.149,-16193.034,-183797.724,59034.355
3.704,09-22-2026 21:13:24:352,-125493.065,154860.664,155133.489,77810.49,98497.656,4206.062,-185935.221,80181.966
3.708,09-22-2026 21:13:24:356,-148920.464,150282.58,150551.963,103919.161,72082.185,19510.748,-187557.958,100359.333
3.712,09-22-2026 21:13:24:360,-152875.74,149331.289,149599.957,89316.006,76117.882,7607.103,-187734.984,90921.532
3.716,09-22-2026 21:13:24:364,-132186.607,153195.906,153467.48,55684.499,104367.76,-13649.406,-186466.299,66187.986
3.72,09-22-2026 21:13:24:368,-114844.246,156703.789,156978,47719.142,118676.14,-16483.607,-183987.937,59353.716
3.724,09-22-2026 21:13:24:372,-125493.065,154860.664,155133.489,77810.49,98497.656,4206.062,-185964.726,80181.966
3.728,09-22-2026 21:13:24:376,-149224.716,150223.124,150492.463,103919.161,72082.185,19510.748,-187557.958,100359.333
3.732,09-22-2026 21:13:24:380,-153179.992,149271.834,149540.457,89316.006,76117.882,7607.103,-187734.984,90921.532
3.736,09-22-2026 21:13:24:384,-132490.859,153195.906,153467.48,56127.018,104367.76,-13649.406,-186495.803,66187.986
3.74,09-22-2026 21:13:24:388,-114844.246,156703.789,156978,47719.142,118676.14,-16483.607,-184105.955,59353.716
3.744,09-22-2026 21:13:24:392,-125493.065,154801.208,155073.989,77810.49,98497.656,4206.062,-185994.23,80507.407
3.748,09-22-2026 21:13:24:396,-149224.716,150223.124,150492.463,103919.161,72082.185,19510.748,-187557.958,100684.774
3.752,09-22-2026 21:13:24:400,-153179.992,149212.378,149480.957,89316.006,76117.882,7607.103,-187734.984,91246.973
3.756,09-22-2026 21:13:24:404,-132795.111,153076.995,153348.479,56127.018,104367.76,-13649.406,-186466.299,66513.427
3.76,09-22-2026 21:13:24:408,-114844.246,156644.333,156918.5,47719.142,118676.14,-16483.607,-184046.946,59353.716
3.764,09-22-2026 21:13:24:412,-125797.317,154741.753,155014.489,77810.49,98497.656,4206.062,-185935.221,80507.407
3.768,09-22-2026 21:13:24:416,-149528.968,150163.668,150432.962,103919.161,72082.185,19510.748,-187498.949,100684.774
3.772,09-22-2026 21:13:24:420,-153484.244,149152.923,149421.456,89758.526,76117.882,7890.523,-187675.975,91246.973
3.776,09-22-2026 21:13:24:424,-132795.111,153076.995,153348.479,56127.018,104367.76,-13649.406,-186436.795,66513.427
3.78,09-22-2026 21:13:24:428,-115148.498,156584.878,156858.999,47719.142,118676.14,-16483.607,-184105.955,59353.716
3.784,09-22-2026 21:13:24:432,-125797.317,154741.753,155014.489,77367.971,98497.656,3922.642,-185905.717,80507.407
3.788,09-22-2026 21:13:24:436,-149528.968,150104.213,150373.462,103919.161,72082.185,19510.748,-187469.445,100684.774
3.792,09-22-2026 21:13:24:440,-153484.244,149152.923,149421.456,89758.526,75751.001,7890.523,-187675.975,91572.415
3.796,09-22-2026 21:13:24:444,-132795.111,153017.539,153288.979,56127.018,104000.879,-13649.406,-186377.786,66838.868
3.8,09-22-2026 21:13:24:448,-115148.498,156584.878,156858.999,47719.142,118676.14,-16483.607,-184017.442,59353.716
3.804,09-22-2026 21:13:24:452,-125938.982,154644.88,154917.348,77834.228,98464.843,4181.833,-185881.622,80714.34
3.808,09-22-2026 21:13:24:456,-149674.121,150053.027,150322.053,103977.186,72062.248,19527.557,-187452.86,100858.045
3.812,09-22-2026 21:13:24:460,-153934.274,149039.242,149307.507,89797.955,75729.275,7876.174,-187642.492,91611.754
3.816,09-22-2026 21:13:24:464,-132937.805,152975.116,153246.332,56122.28,104332.087,-13721.512,-186423.428,66844.903
3.82,09-22-2026 21:13:24:468,-115288.599,156493.548,156767.402,47703.361,118633.493,-16563.313,-184202.022,59910.185
3.824,09-22-2026 21:13:24:472,-125634.685,154644.88,154917.348,77391.127,98464.843,3897.652,-185908.712,81044.564
3.828,09-22-2026 21:13:24:476,-149674.121,150053.027,150262.374,103977.186,72062.248,19527.557,-187452.86,101188.269
3.832,09-22-2026 21:13:24:480,-153934.274,149039.242,149307.507,89797.955,75729.275,7876.174,-187642.492,91941.979
3.836,09-22-2026 21:13:24:484,-133242.101,152915.481,153186.652,56122.28,103965.384,-13721.512,-186450.519,66844.903
3.84,09-22-2026 21:13:24:488,-115288.599,156493.548,156767.402,47703.361,118633.493,-16563.313,-184310.384,59579.961
3.844,09-22-2026 21:13:24:492,-125938.982,154585.246,154857.669,77391.127,98464.843,3897.652,-185962.893,80714.34
3.848,09-22-2026 21:13:24:496,-149674.121,149993.393,150262.374,103977.186,72062.248,19527.557,-187452.86,100858.045
3.852,09-22-2026 21:13:24:500,-153934.274,148979.607,149247.828,89797.955,75729.275,7876.174,-187642.492,91611.754
3.856,09-22-2026 21:13:24:504,-133242.101,152855.847,153126.973,56122.28,103965.384,-13721.512,-186477.609,66514.679
3.86,09-22-2026 21:13:24:508,-115288.599,156433.914,156707.723,47703.361,118633.493,-16563.313,-184500.016,59249.736
3.864,09-22-2026 21:13:24:512,-125634.685,154585.246,154857.669,77391.127,98464.843,3897.652,-185962.893,80384.115
3.868,09-22-2026 21:13:24:516,-149674.121,149993.393,150262.374,103977.186,72062.248,19527.557,-187398.68,100527.82
3.872,09-22-2026 21:13:24:520,-153934.274,148979.607,149247.828,89797.955,75729.275,7876.174,-187588.312,91611.754
3.876,09-22-2026 21:13:24:524,-133242.101,152796.212,153067.294,56565.381,103965.384,-13437.332,-186423.428,66514.679
3.88,09-22-2026 21:13:24:528,-115288.599,156374.279,156648.044,47703.361,118633.493,-16563.313,-184445.835,59249.736
3.884,09-22-2026 21:13:24:532,-125938.982,154525.611,154797.99,77391.127,98464.843,3897.652,-185908.712,80053.89
3.888,09-22-2026 21:13:24:536,-149674.121,149933.758,150202.695,103977.186,72062.248,19527.557,-187371.589,100197.595
3.892,09-22-2026 21:13:24:540,-153934.274,148919.973,149188.149,90241.056,75729.275,8160.354,-187561.221,91281.529
3.896,09-22-2026 21:13:24:544,-133546.398,152736.578,153007.615,56565.381,103598.682,-13153.152,-186423.428,66514.679
3.9,09-22-2026 21:13:24:548,-115592.896,156255.011,156528.685,47703.361,118266.79,-16563.313,-184635.467,59249.736
3.904,09-22-2026 21:13:24:552,-126136.214,154470.358,154742.96,77416.787,98490.637,3828.049,-185936.071,80167.393
3.908,09-22-2026 21:13:24:556,-149508.181,149899.873,150168.899,103428.853,72318.533,19098.984,-187328.584,99890.214
3.912,09-22-2026 21:13:24:560,-153945.896,148871.514,149139.735,89989.285,75903.753,7992.85,-187507.622,91301.243
3.916,09-22-2026 21:13:24:564,-133828.254,152642.164,152913.335,56607.134,103509.945,-13108.806,-186453.29,66488.661
3.92,09-22-2026 21:13:24:568,-116373.24,156127.159,156401.057,48369.98,117850.824,-16162.993,-184981.204,59490.241
3.924,09-22-2026 21:13:24:572,-126432.061,154356.096,154628.608,77416.787,98132.115,3550.396,-186015.643,79849.282
3.928,09-22-2026 21:13:24:576,-149804.029,149842.742,150111.723,103428.853,72318.533,19098.984,-187288.798,99890.214
3.932,09-22-2026 21:13:24:580,-153945.896,148871.514,149139.735,89555.751,75903.753,7715.196,-187487.729,90983.133
3.936,09-22-2026 21:13:24:584,-134124.101,152527.902,152798.984,57040.668,103151.423,-12831.153,-186453.29,66806.771
3.94,09-22-2026 21:13:24:588,-116669.088,156012.896,156286.705,48369.98,117492.302,-16162.993,-185239.814,59490.241
3.944,09-22-2026 21:13:24:592,-126727.909,154241.834,154514.257,77416.787,97773.593,3550.396,-186055.429,79849.282
3.948,09-22-2026 21:13:24:596,-149508.181,149899.873,150168.899,102561.784,72318.533,18543.678,-187268.905,99253.994
3.952,09-22-2026 21:13:24:600,-153650.049,148871.514,149139.735,89555.751,76262.275,7715.196,-187447.943,90665.023
3.956,09-22-2026 21:13:24:604,-134124.101,152470.771,152798.984,57474.203,103151.423,-12553.5,-186473.183,67124.881
3.96,09-22-2026 21:13:24:608,-117556.631,155784.372,156058.002,49670.583,116775.258,-15330.033,-185597.889,60444.571
3.964,09-22-2026 21:13:24:612,-127319.604,154127.571,154342.729,77416.787,97415.071,3550.396,-186154.894,79849.282
3.968,09-22-2026 21:13:24:616,-149212.333,149842.742,150111.723,101694.715,72677.055,17710.718,-187209.226,98617.774
3.972,09-22-2026 21:13:24:620,-153058.353,148985.776,149254.087,88255.148,76979.318,6882.236,-187368.371,89710.693
3.976,09-22-2026 21:13:24:624,-134419.949,152470.771,152741.808,58341.272,103151.423,-11998.193,-186433.397,67124.881
3.98,09-22-2026 21:13:24:628,-118740.021,155555.848,155829.299,51404.721,115699.692,-14219.42,-185677.461,61080.791
3.984,09-22-2026 21:13:24:632,-128798.843,153784.785,154056.851,78283.856,96339.505,4105.703,-186174.787,80485.503
3.988,09-22-2026 21:13:24:636,-149508.181,149785.611,150054.547,100394.112,73035.577,16877.758,-187209.226,97663.444
3.992,09-22-2026 21:13:24:640,-151874.963,149100.038,149368.438,86954.544,78054.884,5771.623,-187328.584,88756.363
3.996,09-22-2026 21:13:24:644,-133532.406,152585.033,152856.16,57907.737,103509.945,-12275.846,-186413.504,66806.771
4,09-22-2026 21:13:24:648,-119627.565,155384.455,155600.596,52705.324,114982.648,-13108.806,-185697.354,62353.231
4.004,09-22-2026 21:13:24:652,-130051.882,153500.292,153773.386,79380.566,95285.755,4913.986,-186228.119,81244.881
4.008,09-22-2026 21:13:24:656,-150284.949,149589.989,149808.812,100546.774,72444.865,16704.532,-187213.026,97709.176
4.012,09-22-2026 21:13:24:660,-152124.319,149031.374,149300.533,86561.958,77899.406,5385.608,-187322.46,88057.692
4.016,09-22-2026 21:13:24:664,-133993.388,152433.846,152706.001,57836.39,103467.566,-12300.21,-186405.949,66767.656
4.02,09-22-2026 21:13:24:668,-119803.964,155277.703,155552.361,52544.838,114717.557,-13243.453,-185694.627,61941.914
4.024,09-22-2026 21:13:24:672,-130051.882,153449.509,153722.558,79002.598,95285.755,4678.175,-186200.76,80961.014
4.028,09-22-2026 21:13:24:676,-149759.415,149589.989,149859.64,100168.806,72785.774,16232.91,-187185.667,97141.441
4.032,09-22-2026 21:13:24:680,-151861.552,149031.374,149300.533,85806.022,78240.315,5149.797,-187281.422,87773.825
4.036,09-22-2026 21:13:24:684,-133467.854,152535.412,152807.656,57458.422,103808.475,-12536.021,-186364.911,66483.789
4.04,09-22-2026 21:13:24:688,-119541.197,155328.486,155603.189,52544.838,115058.466,-13243.453,-185653.589,61941.914
4.044,09-22-2026 21:13:24:692,-129526.347,153500.292,153773.386,78624.63,95626.664,4442.365,-186173.402,80677.146
4.048,09-22-2026 21:13:24:696,-149496.648,149640.772,149910.468,99790.838,73126.682,16232.91,-187158.309,97141.441
4.052,09-22-2026 21:13:24:700,-151336.017,149132.94,149402.189,85806.022,78581.223,4913.986,-187267.743,87489.958
4.056,09-22-2026 21:13:24:704,-132942.32,152586.195,152858.484,57080.454,104149.384,-12536.021,-186351.232,66199.922
4.06,09-22-2026 21:13:24:708,-119015.663,155379.269,155654.017,52544.838,115399.374,-13243.453,-185639.91,61658.047
4.064,09-22-2026 21:13:24:712,-129263.58,153551.075,153824.214,78624.63,95967.572,4206.554,-186159.722,80677.146
4.068,09-22-2026 21:13:24:716,-148971.113,149742.338,150012.124,99790.838,73467.591,15997.099,-187144.63,96857.574
4.072,09-22-2026 21:13:24:720,-150810.483,149234.506,149503.845,85428.054,78922.132,4913.986,-187267.743,87489.958
4.076,09-22-2026 21:13:24:724,-132679.553,152636.978,152909.312,57458.422,104490.293,-12536.021,-186323.874,66199.922
4.08,09-22-2026 21:13:24:728,-118752.896,155480.835,155755.673,52544.838,115740.283,-13243.453,-185626.231,61658.047
4.084,09-22-2026 21:13:24:732,-129263.58,153601.858,153875.041,78624.63,96308.481,4442.365,-186159.722,80393.279
4.088,09-22-2026 21:13:24:736,-148708.346,149793.121,150062.951,99412.87,73467.591,15997.099,-187144.63,96573.707
4.092,09-22-2026 21:13:24:740,-150810.483,149285.29,149554.673,85428.054,79263.041,4913.986,-187226.705,87206.091
4.096,09-22-2026 21:13:24:744,-132416.786,152738.545,153010.968,57080.454,104831.201,-12536.021,-186296.515,66199.922
4.1,09-22-2026 21:13:24:748,-118752.896,155480.835,155755.673,52544.838,115740.283,-13243.453,-185585.193,61658.047
4.104,09-22-2026 21:13:24:752,-128843.546,153695.423,153965.387,78778.947,96599.143,4237.22,-186104.022,80202.127
