PseudoTimeSec,PseudoTimestamp,UF-FP1,UF-FP2,UF-O1,UF-O2,UF-C3,UF-CZ,UF-FZ,UF-C4
0.004,09-20-2026 21:57:48:292,-275218.415,-243508.04,85408.877,69124.021,68474.39,59837.229,62629.767,178960.047
0.008,09-20-2026 21:57:48:296,-275180.417,-226423.797,87887.819,70795.083,62698.923,61052.941,62453.814,168312.212
0.012,09-20-2026 21:57:48:300,-275267.589,-256135.524,95647.987,74713.433,66374.22,67131.498,69315.978,135442.81
0.016,09-20-2026 21:57:48:304,-275274.295,-261335.076,93815.725,73560.977,70107.856,66158.928,69315.978,143312.948
0.02,09-20-2026 21:57:48:308,-275184.888,-244622.23,85516.657,69124.021,68591.066,59918.277,62629.767,178960.047
0.024,09-20-2026 21:57:48:312,-275111.127,-214167.71,81959.913,67510.583,63457.318,56919.522,58318.92,193311.476
0.028,09-20-2026 21:57:48:316,-275146.89,-227166.59,87780.039,70679.837,62698.923,61052.941,62365.837,168312.212
0.032,09-20-2026 21:57:48:320,-275238.532,-256506.921,95647.987,74655.81,66315.882,67050.45,69228.002,135442.81
0.036,09-20-2026 21:57:48:324,-275245.237,-261335.076,93815.725,73503.354,70107.856,66077.881,69140.025,143312.948
0.04,09-20-2026 21:57:48:328,-275155.83,-244622.23,85408.877,69066.399,68532.728,59837.229,62541.79,178960.047
0.044,09-20-2026 21:57:48:332,-275077.599,-214539.106,81959.913,67510.583,63457.318,56838.474,58230.943,193311.476
0.048,09-20-2026 21:57:48:336,-275111.127,-227909.384,87780.039,70679.837,62698.923,60971.893,62277.861,167849.263
0.052,09-20-2026 21:57:48:340,-275200.534,-256506.921,95540.207,74598.187,66315.882,67050.45,69140.025,134979.86
0.056,09-20-2026 21:57:48:344,-275205.004,-261335.076,93707.945,73388.108,70049.518,66077.881,69052.049,142849.999
0.06,09-20-2026 21:57:48:348,-275113.362,-244622.23,85301.096,69008.776,68474.39,59756.182,62453.814,178960.047
0.064,09-20-2026 21:57:48:352,-275037.366,-215281.9,81959.913,67452.96,63398.98,56838.474,58142.967,192848.527
0.068,09-20-2026 21:57:48:356,-275068.659,-228652.177,87780.039,70622.214,62698.923,60971.893,62277.861,167386.313
0.072,09-20-2026 21:57:48:360,-275155.83,-256878.317,95540.207,74540.564,66315.882,67050.45,69140.025,134516.911
0.07600001,09-20-2026 21:57:48:364,-275160.301,-261335.076,93707.945,73330.486,69991.18,65996.834,68964.072,142387.049
0.08000001,09-20-2026 21:57:48:368,-275068.659,-244993.626,85301.096,68951.153,68299.376,59756.182,62365.837,178497.097
0.08400001,09-20-2026 21:57:48:372,-274990.427,-216024.693,81959.913,67395.338,63282.304,56838.474,58142.967,193311.476
0.08800001,09-20-2026 21:57:48:376,-275021.72,-229394.97,87780.039,70506.969,62698.923,60971.893,62101.908,167849.263
0.09200001,09-20-2026 21:57:48:380,-275104.421,-256878.317,95540.207,74425.319,66315.882,66969.403,69052.049,134516.911
0.096,09-20-2026 21:57:48:384,-275108.892,-261335.076,93600.165,73215.24,69932.842,65915.786,68876.096,142849.999
0.1,09-20-2026 21:57:48:388,-275015.014,-245365.023,85193.316,68778.285,68241.038,59675.134,62189.884,178960.047
0.104,09-20-2026 21:57:48:392,-274938.929,-216666.814,81961.344,67256.176,63221.328,56782.908,57981.319,193206.289
0.108,09-20-2026 21:57:48:396,-274969.596,-230003.563,87783.526,70435.488,62697.895,60899.742,62019.564,167943.229
0.112,09-20-2026 21:57:48:400,-275052.834,-257028.029,95405.292,74239.308,66303.768,66837.483,68807.253,134871.588
0.116,09-20-2026 21:57:48:404,-275052.834,-261239.634,93499.85,73047.066,69851.481,65808.274,68721.332,143139.499
0.12,09-20-2026 21:57:48:408,-274963.024,-245446.115,85137.079,68675.511,68164.863,59633.024,62019.564,179426.438
0.124,09-20-2026 21:57:48:412,-274888.548,-217017.781,81961.344,67199.402,63105.01,56782.908,57895.399,193206.289
0.128,09-20-2026 21:57:48:416,-274921.405,-230354.53,87783.526,70321.941,62581.576,60899.742,61933.644,167943.229
0.132,09-20-2026 21:57:48:420,-275002.453,-257028.029,95405.292,74125.761,66245.608,66758.313,68721.332,134871.588
0.136,09-20-2026 21:57:48:424,-275004.643,-261239.634,93499.85,72876.745,69735.163,65729.104,68549.492,143139.499
0.14,09-20-2026 21:57:48:428,-274919.215,-245797.082,85242.937,68561.964,67990.386,59553.854,62019.564,179426.438
0.144,09-20-2026 21:57:48:432,-274849.12,-217719.715,81961.344,67029.082,62930.532,56782.908,57895.399,193206.289
0.148,09-20-2026 21:57:48:436,-274884.167,-230705.497,87677.668,70151.621,62465.258,60820.572,61847.724,167943.229
0.152,09-20-2026 21:57:48:440,-274967.405,-257028.029,95193.576,73955.44,66187.449,66679.143,68635.412,134871.588
0.156,09-20-2026 21:57:48:444,-274969.596,-261239.634,93393.993,72763.198,69677.004,65649.934,68463.572,143598.827
0.16,09-20-2026 21:57:48:448,-274884.167,-245797.082,85137.079,68448.418,67874.067,59553.854,61933.644,178967.11
0.164,09-20-2026 21:57:48:452,-274814.072,-218421.649,81961.344,67029.082,62930.532,56782.908,57895.399,193206.289
0.168,09-20-2026 21:57:48:456,-274846.929,-231407.432,87677.668,70094.847,62465.258,60820.572,61847.724,167943.229
0.172,09-20-2026 21:57:48:460,-274925.786,-257028.029,95087.718,73841.894,66129.29,66520.803,68463.572,135330.917
0.176,09-20-2026 21:57:48:464,-274925.786,-261239.634,93182.277,72592.878,69560.685,65570.765,68291.732,143598.827
0.18,09-20-2026 21:57:48:468,-274842.548,-246148.049,85137.079,68391.644,67699.589,59474.684,61847.724,178967.11
0.184,09-20-2026 21:57:48:472,-274774.644,-218772.616,81961.344,67029.082,62814.213,56782.908,57895.399,192746.96
0.188,09-20-2026 21:57:48:476,-274807.501,-231758.399,87677.668,70094.847,62465.258,60820.572,61847.724,167943.229
0.192,09-20-2026 21:57:48:480,-274884.167,-257378.996,95087.718,73841.894,66129.29,66520.803,68463.572,135790.245
0.196,09-20-2026 21:57:48:484,-274881.977,-261239.634,93182.277,72592.878,69502.526,65491.595,68291.732,144058.155
0.2,09-20-2026 21:57:48:488,-274794.358,-246499.016,85137.079,68448.418,67641.43,59553.854,61847.724,178967.11
0.204,09-20-2026 21:57:48:492,-274569.231,-219073.962,81854.279,66870.742,62665.708,56583.575,57750.962,192350.574
0.208,09-20-2026 21:57:48:496,-274607.229,-232045.127,87499.435,69966.548,62387.876,60646.899,61739.944,167579.477
0.212,09-20-2026 21:57:48:500,-274692.166,-257322.268,94889.458,73649.49,66221.96,66320.219,68305.143,136173.265
0.216,09-20-2026 21:57:48:504,-274694.401,-260980.801,92939.313,72421.843,69444.814,65246.888,68055.832,144577.744
0.22,09-20-2026 21:57:48:508,-274609.464,-245681.479,84830.816,68258.517,67499.988,59266.902,61656.84,179522.685
0.224,09-20-2026 21:57:48:512,-274537.939,-218741.369,81854.279,66924.118,62665.708,56583.575,57750.962,192350.574
0.228,09-20-2026 21:57:48:516,-274573.702,-232045.127,87499.435,69966.548,62387.876,60570.232,61739.944,167579.477
0.232,09-20-2026 21:57:48:520,-274654.168,-257322.268,94889.458,73649.49,66166.394,66320.219,68305.143,136173.265
0.236,09-20-2026 21:57:48:524,-274654.168,-260980.801,92939.313,72421.843,69444.814,65170.221,68055.832,145020.085
0.24,09-20-2026 21:57:48:528,-274564.761,-245681.479,84830.816,68258.517,67444.422,59190.236,61656.84,179522.685
0.244,09-20-2026 21:57:48:532,-274495.47,-218741.369,81854.279,66924.118,62610.142,56583.575,57750.962,192350.574
0.248,09-20-2026 21:57:48:536,-274526.763,-232045.127,87499.435,69966.548,62387.876,60570.232,61739.944,167579.477
0.252,09-20-2026 21:57:48:540,-274604.994,-257322.268,94889.458,73649.49,66166.394,66243.552,68305.143,136173.265
0.256,09-20-2026 21:57:48:544,-274600.524,-260980.801,92939.313,72368.467,69389.247,65170.221,68055.832,145020.085
0.26,09-20-2026 21:57:48:548,-274508.882,-245348.885,84830.816,68205.141,67388.856,59113.569,61573.736,179965.026
0.264,09-20-2026 21:57:48:552,-274439.591,-218741.369,81854.279,66924.118,62610.142,56583.575,57750.962,192350.574
0.268,09-20-2026 21:57:48:556,-274473.119,-232377.721,87602.074,69966.548,62387.876,60646.899,61739.944,167579.477
0.272,09-20-2026 21:57:48:560,-274553.585,-257322.268,94889.458,73596.114,66166.394,66243.552,68305.143,136173.265
0.276,09-20-2026 21:57:48:564,-274551.35,-260980.801,92939.313,72315.091,69389.247,65093.555,67972.728,145462.426
0.28,09-20-2026 21:57:48:568,-274470.884,-245348.885,84830.816,68151.765,67388.856,59113.569,61490.632,179965.026
0.284,09-20-2026 21:57:48:572,-274410.534,-218741.369,81854.279,66870.742,62554.576,56583.575,57750.962,192350.574
0.288,09-20-2026 21:57:48:576,-274450.767,-232377.721,87602.074,69913.172,62387.876,60570.232,61739.944,167579.477
0.292,09-20-2026 21:57:48:580,-274533.468,-257322.268,94889.458,73542.738,66166.394,66243.552,68305.143,136615.606
0.296,09-20-2026 21:57:48:584,-274535.704,-260980.801,92836.674,72261.715,69389.247,65093.555,67972.728,145462.426
0.3,09-20-2026 21:57:48:588,-274453.002,-245348.885,84728.177,68098.389,67388.856,59113.569,61490.632,180849.708
0.304,09-20-2026 21:57:48:592,-274392.161,-218805.429,81866.84,66803.374,62587.88,56513.659,57676.62,192932.524
0.308,09-20-2026 21:57:48:596,-274430.382,-232575.891,87622.638,69945.135,62415.279,60616.545,61772.89,168007.647
0.312,09-20-2026 21:57:48:600,-274512.86,-257362.724,94948.199,73647.925,66212.483,66218.563,68343.99,137474.672
0.316,09-20-2026 21:57:48:604,-274512.86,-260805.34,92855.181,72357.559,69434.353,65113.94,68002.634,146821.501
0.32,09-20-2026 21:57:48:608,-274430.382,-244969.308,84692.414,68205.946,67420.684,59038.512,61431.534,183585.695
0.324,09-20-2026 21:57:48:612,-274363.998,-218805.429,82076.142,67139.991,62645.413,56671.462,57761.959,198540.622
0.328,09-20-2026 21:57:48:616,-274394.172,-232575.891,87727.289,70169.547,62530.346,60695.447,61858.229,175485.11
0.332,09-20-2026 21:57:48:620,-274466.592,-257362.724,95052.85,73760.131,66327.55,66297.465,68343.99,145575.258
0.336,09-20-2026 21:57:48:624,-274458.545,-260805.34,92959.832,72469.765,69491.886,65113.94,67917.295,156791.452
0.34,09-20-2026 21:57:48:628,-274368.021,-244969.308,84797.065,68205.946,67478.218,59038.512,61431.534,194801.89
0.344,09-20-2026 21:57:48:632,-274299.624,-218461.167,81866.84,66803.374,62530.346,56434.757,57505.942,210379.939
0.348,09-20-2026 21:57:48:636,-274335.834,-232575.891,87622.638,69832.929,62300.213,60537.643,61602.212,186078.183
0.352,09-20-2026 21:57:48:640,-274420.324,-257362.724,94948.199,73423.514,66154.95,66218.563,68258.651,153675.843
0.356,09-20-2026 21:57:48:644,-274424.347,-260805.34,92855.181,72077.044,69319.286,64956.136,67831.956,164268.916
0.36,09-20-2026 21:57:48:648,-274341.869,-244625.046,84587.763,67869.329,67248.084,58801.807,61260.857,201033.11
0.364,09-20-2026 21:57:48:652,-274279.508,-217772.644,81762.189,66635.065,62300.213,56276.954,57505.942,214741.792
0.368,09-20-2026 21:57:48:656,-274323.764,-231887.368,87622.638,69720.724,62185.146,60379.84,61602.212,190440.037
0.372,09-20-2026 21:57:48:660,-274412.277,-257362.724,94948.199,73367.411,66039.883,66139.661,68258.651,158037.696
0.376,09-20-2026 21:57:48:664,-274418.312,-260805.34,92855.181,72077.044,69319.286,64956.136,67917.295,167384.525
0.38,09-20-2026 21:57:48:668,-274327.788,-243936.523,84483.112,67869.329,67190.551,58722.905,61175.518,204148.719
0.384,09-20-2026 21:57:48:672,-274261.403,-217084.121,81762.189,66691.168,62242.679,56276.954,57505.942,216611.158
0.388,09-20-2026 21:57:48:676,-274301.636,-231543.107,87622.638,69776.826,62185.146,60458.742,61687.551,192309.403
0.392,09-20-2026 21:57:48:680,-274390.149,-257018.463,95052.85,73423.514,66039.883,66218.563,68343.99,159907.062
0.396,09-20-2026 21:57:48:684,-274392.161,-260805.34,92855.181,72133.147,69319.286,64956.136,67917.295,169877.013
0.4,09-20-2026 21:57:48:688,-274301.636,-243936.523,84378.461,67869.329,67190.551,58644.004,61175.518,206018.085
0.404,09-20-2026 21:57:48:692,-274231.63,-216826.45,81705.55,66767.701,62251.173,56225.411,57530.172,218292.724
0.408,09-20-2026 21:57:48:696,-274271.551,-231319.232,87563.495,69842.764,62137.715,60449.891,61713.971,193913.855
0.412,09-20-2026 21:57:48:700,-274359.795,-257199.199,94990.533,73501.029,66051.998,66160.761,68373.897,161860.157
0.416,09-20-2026 21:57:48:704,-274361.896,-260649.861,92793.804,72175.571,69285.535,64909.064,67946.979,171340.829
0.42,09-20-2026 21:57:48:708,-274269.45,-243741.616,84425.31,67934.104,67186.572,58650.575,61201.669,207006.211
0.424,09-20-2026 21:57:48:712,-274200.115,-216826.45,81705.55,66767.701,62194.444,56225.411,57530.172,219195.645
0.428,09-20-2026 21:57:48:716,-274240.035,-231664.298,87563.495,69895.782,62137.715,60449.891,61713.971,195268.237
0.432,09-20-2026 21:57:48:720,-274328.279,-257199.199,94990.533,73501.029,65995.269,66160.761,68373.897,163214.539
0.436,09-20-2026 21:57:48:724,-274330.38,-260649.861,92793.804,72175.571,69285.535,64909.064,67946.979,172695.21
0.44,09-20-2026 21:57:48:728,-274237.934,-243396.55,84320.704,67934.104,67129.843,58572.344,61201.669,207909.132
0.444,09-20-2026 21:57:48:732,-274170.7,-216826.45,81705.55,66820.719,62137.715,56225.411,57530.172,219195.645
0.448,09-20-2026 21:57:48:736,-274208.519,-232009.364,87563.495,69895.782,62080.987,60371.659,61713.971,194816.776
0.452,09-20-2026 21:57:48:740,-274296.763,-257199.199,94990.533,73501.029,65995.269,66082.53,68373.897,162311.618
0.456,09-20-2026 21:57:48:744,-274296.763,-260649.861,92793.804,72228.589,69228.806,64909.064,67946.979,171340.829
0.46,09-20-2026 21:57:48:748,-274206.418,-244776.815,84529.917,68093.159,67186.572,58728.806,61372.436,206103.29
0.464,09-20-2026 21:57:48:752,-274137.083,-217861.649,81705.55,66873.737,62251.173,56225.411,57615.555,218744.185
0.468,09-20-2026 21:57:48:756,-274172.801,-231664.298,87458.889,69895.782,62080.987,60371.659,61713.971,194365.316
0.472,09-20-2026 21:57:48:760,-274254.742,-257199.199,94885.927,73448.011,65938.54,66004.299,68288.513,162763.079
0.476,09-20-2026 21:57:48:764,-274254.742,-260649.861,92689.197,72175.571,69115.349,64752.601,67861.595,172243.75
0.48,09-20-2026 21:57:48:768,-274164.396,-244776.815,84529.917,68093.159,67073.115,58728.806,61372.436,207006.211
0.484,09-20-2026 21:57:48:772,-274095.061,-217861.649,81705.55,66873.737,62251.173,56225.411,57615.555,219195.645
0.488,09-20-2026 21:57:48:776,-274130.779,-232009.364,87458.889,69895.782,62080.987,60293.428,61628.587,195268.237
0.492,09-20-2026 21:57:48:780,-274210.62,-257199.199,94676.715,73394.993,65881.811,65926.068,68203.13,163214.539
0.496,09-20-2026 21:57:48:784,-274208.519,-260649.861,92584.591,72122.553,69058.62,64752.601,67776.211,172243.75
0.5,09-20-2026 21:57:48:788,-274122.375,-244776.815,84529.917,68093.159,67016.386,58728.806,61372.436,206554.75
0.504,09-20-2026 21:57:48:792,-274056.169,-218652.498,81822.494,66965.603,62270.217,56358.448,57717.613,217864.599
0.508,09-20-2026 21:57:48:796,-274092.692,-232523.812,87460.141,69887.691,62107.943,60310.416,61642.222,193765.753
0.512,09-20-2026 21:57:48:800,-274171.504,-257294.015,94607.871,73313.588,65894.328,65828.257,68101.474,162080.233
0.516,09-20-2026 21:57:48:804,-274171.504,-260596.709,92493.754,72104.448,68977.528,64635.21,67692.66,171452.006
0.52,09-20-2026 21:57:48:808,-274088.848,-245074.048,84540.645,68124.362,66976.153,58744.542,61396.934,205815.176
0.524,09-20-2026 21:57:48:812,-274029.258,-218982.767,81822.494,66915.222,62270.217,56358.448,57717.613,218310.874
0.528,09-20-2026 21:57:48:816,-274063.858,-232854.081,87460.141,69837.31,62107.943,60310.416,61642.222,194212.028
0.532,09-20-2026 21:57:48:820,-274142.671,-257294.015,94507.199,73263.207,65840.237,65753.691,68101.474,162972.783
0.536,09-20-2026 21:57:48:824,-274140.748,-260596.709,92493.754,72054.067,68923.437,64560.645,67692.66,172344.556
0.54,09-20-2026 21:57:48:828,-274056.169,-245074.048,84540.645,68073.981,66922.062,58744.542,61315.171,206707.726
0.544,09-20-2026 21:57:48:832,-273994.657,-219313.037,81822.494,66915.222,62216.125,56358.448,57717.613,218310.874
0.548,09-20-2026 21:57:48:836,-274027.336,-232854.081,87359.469,69837.31,62107.943,60310.416,61642.222,194658.303
0.552,09-20-2026 21:57:48:840,-274102.303,-257294.015,94507.199,73263.207,65840.237,65679.126,68019.711,163419.058
0.5560001,09-20-2026 21:57:48:844,-274098.459,-260596.709,92393.081,71953.305,68869.346,64486.079,67529.135,172790.831
0.56,09-20-2026 21:57:48:848,-274015.802,-245074.048,84439.973,68073.981,66867.97,58669.976,61315.171,206707.726
0.564,09-20-2026 21:57:48:852,-273956.212,-219643.306,81822.494,66915.222,62216.125,56358.448,57717.613,218310.874
0.568,09-20-2026 21:57:48:856,-273990.813,-233514.62,87460.141,69837.31,62107.943,60310.416,61723.985,194212.028
0.572,09-20-2026 21:57:48:860,-274067.703,-257294.015,94406.527,73212.826,65840.237,65679.126,68019.711,163419.058
0.576,09-20-2026 21:57:48:864,-274065.781,-260596.709,92292.409,71953.305,68869.346,64486.079,67529.135,173237.106
0.58,09-20-2026 21:57:48:868,-273985.046,-245074.048,84439.973,68023.6,66867.97,58669.976,61315.171,207154.001
0.5840001,09-20-2026 21:57:48:872,-273927.379,-219973.575,81822.494,66915.222,62216.125,56358.448,57717.613,218757.149
0.588,09-20-2026 21:57:48:876,-273961.979,-233514.62,87359.469,69786.929,62107.943,60235.85,61642.222,195550.852
0.592,09-20-2026 21:57:48:880,-274036.947,-257294.015,94406.527,73162.445,65840.237,65604.56,67937.948,164757.882
0.596,09-20-2026 21:57:48:884,-274035.025,-260596.709,92191.737,71852.544,68815.254,64411.514,67529.135,174575.931
0.6,09-20-2026 21:57:48:888,-273954.29,-245404.317,84439.973,67973.22,66813.879,58669.976,61315.171,208046.551
0.604,09-20-2026 21:57:48:892,-273894.924,-220098.79,81731.121,66870.966,62212.46,56353.442,57776.175,219550.368
0.608,09-20-2026 21:57:48:896,-273931.134,-233765.988,87392.996,69738.605,62052.734,60217.745,61714.642,196783.909
0.612,09-20-2026 21:57:48:900,-274005.565,-257604.123,94246.846,73100.665,65779.664,65540.277,67903.661,165855.889
0.6160001,09-20-2026 21:57:48:904,-274003.553,-260464.699,92160.892,71864.614,68761.208,64373.695,67501.777,175306.118
0.62,09-20-2026 21:57:48:908,-273923.087,-245208.293,84313.731,67958.691,66791.259,58613.695,61232.38,208381.916
0.624,09-20-2026 21:57:48:912,-273864.749,-220098.79,81731.121,66870.966,62159.218,56353.442,57776.175,219550.368
0.628,09-20-2026 21:57:48:916,-273898.947,-234083.829,87293.665,69788.047,62052.734,60290.657,61714.642,196354.353
0.632,09-20-2026 21:57:48:920,-273975.39,-257604.123,94246.846,73100.665,65779.664,65540.277,67984.038,165426.334
0.636,09-20-2026 21:57:48:924,-273971.367,-260464.699,92160.892,71815.171,68761.208,64373.695,67501.777,174876.562
0.64,09-20-2026 21:57:48:928,-273890.9,-245208.293,84313.731,67909.249,66844.501,58613.695,61232.38,208381.916
0.6440001,09-20-2026 21:57:48:932,-273830.551,-220098.79,81731.121,66821.524,62212.46,56280.53,57776.175,219550.368
0.648,09-20-2026 21:57:48:936,-273866.761,-234083.829,87293.665,69689.163,61999.492,60217.745,61634.265,195924.797
0.652,09-20-2026 21:57:48:940,-273941.192,-257604.123,94246.846,73051.223,65726.422,65540.277,67903.661,164996.778
0.656,09-20-2026 21:57:48:944,-273937.169,-260464.699,92061.56,71815.171,68761.208,64300.783,67501.777,174447.006
0.66,09-20-2026 21:57:48:948,-273854.691,-245208.293,84214.399,67909.249,66844.501,58540.783,61232.38,207952.36
0.664,09-20-2026 21:57:48:952,-273794.341,-220098.79,81631.789,66821.524,62212.46,56280.53,57776.175,219120.812
0.668,09-20-2026 21:57:48:956,-273828.539,-234083.829,87293.665,69738.605,61999.492,60217.745,61714.642,195924.797
0.6720001,09-20-2026 21:57:48:960,-273904.982,-257604.123,94246.846,73051.223,65726.422,65540.277,67984.038,164996.778
0.6760001,09-20-2026 21:57:48:964,-273900.959,-260464.699,92061.56,71815.171,68761.208,64300.783,67501.777,174876.562
0.68,09-20-2026 21:57:48:968,-273816.469,-244890.451,84115.068,67909.249,66791.259,58540.783,61232.38,207952.36
0.684,09-20-2026 21:57:48:972,-273754.108,-220098.79,81631.789,66821.524,62159.218,56280.53,57776.175,219120.812
0.688,09-20-2026 21:57:48:976,-273790.318,-233765.988,87194.334,69689.163,61999.492,60217.745,61714.642,195924.797
0.692,09-20-2026 21:57:48:980,-273868.772,-257286.281,94246.846,73100.665,65726.422,65540.277,67984.038,164996.778
0.696,09-20-2026 21:57:48:984,-273866.761,-260464.699,92061.56,71815.171,68761.208,64300.783,67501.777,174447.006
0.7,09-20-2026 21:57:48:988,-273782.271,-244890.451,84115.068,67859.807,66791.259,58467.872,61232.38,207952.36
0.7040001,09-20-2026 21:57:48:992,-273721.653,-219475.221,81500.719,66712.313,62022.336,56156.702,57664.595,219402.533
0.708,09-20-2026 21:57:48:996,-273758.668,-233878.64,87127.726,69707,61855.1,60119.129,61652.414,195190.229
0.712,09-20-2026 21:57:49:000,-273838.866,-257326.067,94213.586,73114.747,65645.777,65557.756,68015.956,163803.91
0.716,09-20-2026 21:57:49:004,-273838.866,-260340.737,92025.306,71823.933,68711.766,64314.641,67506.873,173668.182
0.72,09-20-2026 21:57:49:008,-273752.498,-244932.427,84001.611,67848.229,66704.937,58409.847,61143.331,207744.757
0.724,09-20-2026 21:57:49:012,-273688.751,-219475.221,81292.311,66712.313,61966.591,56079.007,57579.748,219402.533
0.728,09-20-2026 21:57:49:016,-273725.766,-233543.677,87127.726,69707,61799.355,60119.129,61652.414,195190.229
0.7320001,09-20-2026 21:57:49:020,-273808.02,-257326.067,94213.586,73114.747,65645.777,65635.451,68100.803,163355.534
0.7360001,09-20-2026 21:57:49:024,-273808.02,-260340.737,92025.306,71823.933,68711.766,64314.641,67591.72,173219.806
0.74,09-20-2026 21:57:49:028,-273717.54,-244262.501,83897.407,67848.229,66704.937,58332.152,61143.331,207296.381
0.744,09-20-2026 21:57:49:032,-273651.737,-218470.331,81188.107,66712.313,61910.845,56001.312,57579.748,218505.781
0.748,09-20-2026 21:57:49:036,-273688.751,-233208.714,87127.726,69707,61799.355,60119.129,61652.414,194293.477
0.752,09-20-2026 21:57:49:040,-273775.118,-257326.067,94317.79,73218.012,65645.777,65713.145,68185.65,162458.782
0.756,09-20-2026 21:57:49:044,-273775.118,-260340.737,92025.306,71875.566,68767.511,64392.336,67676.567,173219.806
0.7600001,09-20-2026 21:57:49:048,-273682.582,-244262.501,83793.203,67796.596,66704.937,58254.458,61143.331,207744.757
0.7640001,09-20-2026 21:57:49:052,-273612.666,-218135.368,81083.903,66660.68,61799.355,55923.618,57494.901,219402.533
0.768,09-20-2026 21:57:49:056,-273651.737,-232873.751,87023.522,69707,61687.864,60041.435,61652.414,195638.605
0.772,09-20-2026 21:57:49:060,-273742.217,-257326.067,94317.79,73166.379,65645.777,65713.145,68270.498,162907.158
0.776,09-20-2026 21:57:49:064,-273744.273,-260340.737,92025.306,71875.566,68767.511,64392.336,67761.414,173219.806
0.78,09-20-2026 21:57:49:068,-273651.737,-243927.538,83688.999,67744.963,66649.192,58176.763,61058.484,207744.757
0.784,09-20-2026 21:57:49:072,-273579.764,-217800.405,81083.903,66660.68,61743.61,55845.923,57494.901,219402.533
0.788,09-20-2026 21:57:49:076,-273620.891,-232538.787,87023.522,69707,61687.864,60041.435,61652.414,194741.853
0.7920001,09-20-2026 21:57:49:080,-273715.484,-257326.067,94317.79,73218.012,65645.777,65713.145,68270.498,162458.782
0.7960001,09-20-2026 21:57:49:084,-273719.597,-260340.737,92025.306,71875.566,68767.511,64392.336,67761.414,172771.43
0.8,09-20-2026 21:57:49:088,-273622.948,-243592.574,83584.795,67693.331,66649.192,58099.068,61058.484,207744.757
0.804,09-20-2026 21:57:49:092,-273550.126,-217161.234,80981.22,66568.01,61700.918,55698.893,57437.814,219451.796
0.808,09-20-2026 21:57:49:096,-273594.248,-232524.259,86986.865,69709.28,61643.384,60019.932,61698.28,195232.966
0.812,09-20-2026 21:57:49:100,-273688.796,-257105.098,94386.678,73276.484,65613.188,65781.318,68393.298,162788.872
0.816,09-20-2026 21:57:49:104,-273690.897,-260177.703,92027.318,71892.196,68777.525,64340.972,67784.66,173298.931
0.8200001,09-20-2026 21:57:49:108,-273596.349,-243449.076,83555.068,67686.089,66591.256,58019.451,61089.642,208484.779
0.8240001,09-20-2026 21:57:49:112,-273520.711,-216819.834,80873.976,66568.01,61643.384,55698.893,57437.814,219908.755
0.8280001,09-20-2026 21:57:49:116,-273562.732,-232182.858,86986.865,69709.28,61528.318,60019.932,61698.28,195689.925
0.832,09-20-2026 21:57:49:120,-273657.28,-257105.098,94386.678,73276.484,65613.188,65781.318,68480.246,162788.872
0.836,09-20-2026 21:57:49:124,-273661.482,-260177.703,92027.318,71892.196,68777.525,64340.972,67871.608,173755.89
0.84,09-20-2026 21:57:49:128,-273560.631,-243449.076,83555.068,67686.089,66591.256,58019.451,61089.642,208484.779
0.844,09-20-2026 21:57:49:132,-273484.993,-216819.834,80766.732,66568.01,61585.851,55618.874,57437.814,220365.714
0.848,09-20-2026 21:57:49:136,-273524.913,-232182.858,86879.621,69656.038,61528.318,60019.932,61698.28,195689.925
0.8520001,09-20-2026 21:57:49:140,-273623.663,-257105.098,94386.678,73276.484,65613.188,65781.318,68393.298,163245.832
0.8560001,09-20-2026 21:57:49:144,-273625.764,-260177.703,91920.074,71892.196,68777.525,64340.972,67871.608,174212.849
0.86,09-20-2026 21:57:49:148,-273529.115,-243107.676,83447.824,67686.089,66533.722,57939.432,61089.642,208941.738
0.864,09-20-2026 21:57:49:152,-273451.376,-216819.834,80873.976,66568.01,61528.318,55618.874,57437.814,220365.714
0.868,09-20-2026 21:57:49:156,-273497.599,-232182.858,86879.621,69656.038,61470.784,60019.932,61785.228,196603.843
0.872,09-20-2026 21:57:49:160,-273596.349,-257105.098,94386.678,73276.484,65613.188,65781.318,68480.246,163702.791
0.876,09-20-2026 21:57:49:164,-273600.551,-260177.703,92027.318,71892.196,68777.525,64340.972,67958.557,174669.808
0.8800001,09-20-2026 21:57:49:168,-273501.801,-243790.477,83555.068,67739.331,66591.256,58019.451,61176.59,208941.738
0.8840001,09-20-2026 21:57:49:172,-273424.062,-216819.834,80766.732,66514.768,61528.318,55618.874,57437.814,220822.674
0.8880001,09-20-2026 21:57:49:176,-273463.982,-232182.858,86879.621,69602.796,61470.784,59939.913,61698.28,197517.761
0.892,09-20-2026 21:57:49:180,-273562.732,-257105.098,94279.435,73223.242,65555.655,65781.318,68480.246,164616.709
0.896,09-20-2026 21:57:49:184,-273564.833,-260177.703,91920.074,71892.196,68719.991,64340.972,67871.608,175583.726
0.9,09-20-2026 21:57:49:188,-273466.083,-243790.477,83447.824,67686.089,66533.722,58019.451,61176.59,209855.656
0.904,09-20-2026 21:57:49:192,-273389.819,-217313.852,80747.51,66528.045,61561.577,55624.909,57474.605,221812.096
0.9080001,09-20-2026 21:57:49:196,-273433.092,-232467.664,86773.764,69608.652,61389.379,59892.84,61684.69,199083.993
0.9120001,09-20-2026 21:57:49:200,-273533.407,-257050.515,94174.426,73159.182,65464.728,65662.451,68386.459,166551.61
0.9160001,09-20-2026 21:57:49:204,-273537.341,-260081.277,91848.504,71801.626,68621.688,64239.808,67785.018,177247.188
0.92,09-20-2026 21:57:49:208,-273440.96,-243580.46,83390.603,67676.746,66497.915,57995.982,61169.17,210670.869
0.924,09-20-2026 21:57:49:212,-273366.216,-217313.852,80747.51,66528.045,61504.178,55624.909,57474.605,222257.745
0.928,09-20-2026 21:57:49:216,-273411.456,-232804.416,86879.487,69608.652,61389.379,59971.876,61770.61,199975.291
0.932,09-20-2026 21:57:49:220,-273509.803,-257387.266,94174.426,73159.182,65464.728,65662.451,68386.459,167442.908
0.936,09-20-2026 21:57:49:224,-273515.704,-260081.277,91742.78,71801.626,68564.289,64239.808,67785.018,178584.135
0.9400001,09-20-2026 21:57:49:228,-273417.356,-243917.211,83390.603,67676.746,66440.516,57995.982,61169.17,211116.518
0.9440001,09-20-2026 21:57:49:232,-273344.579,-217650.603,80747.51,66528.045,61504.178,55624.909,57474.605,222703.394
0.9480001,09-20-2026 21:57:49:236,-273387.852,-232804.416,86773.764,69608.652,61331.98,59892.84,61684.69,201312.238
0.952,09-20-2026 21:57:49:240,-273486.2,-257387.266,94068.702,73159.182,65407.329,65583.416,68386.459,168779.855
0.956,09-20-2026 21:57:49:244,-273490.134,-260081.277,91742.78,71801.626,68506.89,64160.772,67785.018,179475.433
0.96,09-20-2026 21:57:49:248,-273393.753,-244253.963,83390.603,67676.746,66383.116,57995.982,61169.17,211562.167
0.964,09-20-2026 21:57:49:252,-273317.042,-217987.355,80747.51,66528.045,61504.178,55624.909,57474.605,223149.043
0.9680001,09-20-2026 21:57:49:256,-273362.282,-232804.416,86773.764,69556.438,61331.98,59892.84,61684.69,201757.887
0.9720001,09-20-2026 21:57:49:260,-273456.695,-257387.266,94068.702,73106.968,65349.929,65583.416,68300.538,169671.153
0.9760001,09-20-2026 21:57:49:264,-273460.629,-260081.277,91531.332,71697.199,68449.49,64081.736,67699.098,180812.38
0.98,09-20-2026 21:57:49:268,-273362.282,-243917.211,83390.603,67624.532,66383.116,57995.982,61169.17,212007.816
0.984,09-20-2026 21:57:49:272,-273289.504,-217987.355,80747.51,66528.045,61446.778,55624.909,57474.605,223149.043
0.988,09-20-2026 21:57:49:276,-273334.744,-233477.918,86668.04,69608.652,61331.98,59892.84,61684.69,202203.536
0.992,09-20-2026 21:57:49:280,-273429.158,-257387.266,93962.979,73054.755,65292.53,65504.38,68300.538,170116.802
0.9960001,09-20-2026 21:57:49:284,-273431.125,-260081.277,91531.332,71697.199,68449.49,64081.736,67699.098,181258.029
1,09-20-2026 21:57:49:288,-273334.744,-244253.963,83284.88,67624.532,66325.717,57916.946,61083.25,212453.465
1.004,09-20-2026 21:57:49:292,-273262.191,-218690.228,80671.737,66469.349,61424.203,55618.293,57451.851,223722.008
1.008,09-20-2026 21:57:49:296,-273306.313,-233646.138,86700.003,69544.681,61255.626,59869.371,61680.801,203192.914
1.012,09-20-2026 21:57:49:300,-273398.76,-257380.516,93871.56,72984.883,65301.471,65434.419,68193.384,171351.87
1.016,09-20-2026 21:57:49:304,-273398.76,-259981.544,91481.041,71629.652,68335.854,64043.157,67601.331,182244.859
1.02,09-20-2026 21:57:49:308,-273304.212,-244375.377,83270.128,67563.959,66256.74,57937.063,61088.748,212829.019
1.024,09-20-2026 21:57:49:312,-273232.776,-218690.228,80671.737,66469.349,61424.203,55618.293,57451.851,224140.969
1.028,09-20-2026 21:57:49:316,-273274.797,-233971.266,86700.003,69492.557,61255.626,59869.371,61680.801,204449.797
1.032,09-20-2026 21:57:49:320,-273367.244,-257380.516,93871.56,72932.759,65189.086,65357.127,68193.384,172608.754
1.036,09-20-2026 21:57:49:324,-273367.244,-259981.544,91377.105,71577.528,68335.854,63965.865,67516.752,183501.742
1.04,09-20-2026 21:57:49:328,-273272.696,-244375.377,83270.128,67511.835,66200.547,57859.77,61004.169,213247.98
1.044,09-20-2026 21:57:49:332,-273201.26,-219340.485,80671.737,66417.225,61424.203,55618.293,57451.851,224140.969
1.048,09-20-2026 21:57:49:336,-273243.281,-234296.395,86700.003,69492.557,61255.626,59869.371,61680.801,204868.758
1.052,09-20-2026 21:57:49:340,-273333.627,-257380.516,93871.56,72932.759,65245.279,65357.127,68193.384,173027.715
1.056,09-20-2026 21:57:49:344,-273333.627,-259981.544,91377.105,71525.403,68279.662,63888.572,67432.173,184339.664
1.06,09-20-2026 21:57:49:348,-273239.079,-244700.506,83270.128,67511.835,66200.547,57937.063,61004.169,213247.98
1.064,09-20-2026 21:57:49:352,-273167.643,-219665.613,80671.737,66365.101,61368.011,55618.293,57451.851,224559.93
1.068,09-20-2026 21:57:49:356,-273209.664,-234621.523,86596.067,69388.308,61199.434,59792.079,61596.222,205706.681
1.072,09-20-2026 21:57:49:360,-273297.909,-257380.516,93767.624,72828.51,65132.894,65279.834,68024.226,174284.598
1.076,09-20-2026 21:57:49:364,-273295.808,-259981.544,91273.17,71421.155,68223.47,63888.572,67432.173,185177.587
1.08,09-20-2026 21:57:49:368,-273201.26,-244700.506,83062.256,67355.462,66144.355,57782.478,60919.59,214085.902
1.084,09-20-2026 21:57:49:372,-273131.925,-219665.613,80671.737,66365.101,61311.819,55618.293,57451.851,224559.93
1.088,09-20-2026 21:57:49:376,-273173.946,-234621.523,86596.067,69336.184,61199.434,59792.079,61596.222,206125.642
1.092,09-20-2026 21:57:49:380,-273260.09,-257380.516,93663.689,72724.262,65132.894,65279.834,68024.226,174703.559
1.096,09-20-2026 21:57:49:384,-273257.988,-259981.544,91169.234,71316.906,68167.277,63811.28,67347.594,185596.548
1.1,09-20-2026 21:57:49:388,-273165.542,-244700.506,83062.256,67355.462,66088.163,57782.478,60835.011,214085.902
1.104,09-20-2026 21:57:49:392,-273098.889,-220233.035,80590.153,66310.876,61329.163,55591.381,57441.301,224833.113
1.108,09-20-2026 21:57:49:396,-273140.016,-234892.158,86514.707,69285.982,61109.759,59739.194,61517.767,207008.58
1.112,09-20-2026 21:57:49:400,-273224.327,-257660.584,93562.882,72664.493,65059.044,65169.059,67923.643,176009.393
1.116,09-20-2026 21:57:49:404,-273222.27,-259843.857,91111.343,71252.578,68075.859,63736.178,67258.098,186859.108
1.12,09-20-2026 21:57:49:408,-273129.734,-244560.941,83041.693,67268.961,66046.365,57702.995,60769.029,214758.377
1.124,09-20-2026 21:57:49:412,-273063.931,-220233.035,80590.153,66260.45,61274.312,55591.381,57358.108,225220.603
1.128,09-20-2026 21:57:49:416,-273103.001,-235515.95,86514.707,69285.982,61164.61,59814.609,61600.961,207783.56
1.132,09-20-2026 21:57:49:420,-273189.369,-257660.584,93562.882,72664.493,65059.044,65169.059,67923.643,176396.883
1.136,09-20-2026 21:57:49:424,-273185.256,-259843.857,91111.343,71252.578,68075.859,63736.178,67258.098,187634.088
1.14,09-20-2026 21:57:49:428,-273092.72,-244560.941,82939.545,67218.535,65991.514,57702.995,60685.836,214758.377
1.144,09-20-2026 21:57:49:432,-273028.973,-220544.931,80590.153,66260.45,61219.461,55591.381,57358.108,225220.603
1.148,09-20-2026 21:57:49:436,-273070.1,-235515.95,86514.707,69235.557,61109.759,59739.194,61517.767,208171.05
1.152,09-20-2026 21:57:49:440,-273154.41,-257660.584,93460.735,72614.068,65004.193,65093.644,67840.45,177171.862
1.156,09-20-2026 21:57:49:444,-273152.354,-259843.857,91009.196,71202.153,68021.008,63660.763,67174.905,188021.578
1.16,09-20-2026 21:57:49:448,-273059.818,-244560.941,82837.398,67218.535,65936.663,57627.58,60685.836,215145.867
1.164,09-20-2026 21:57:49:452,-272996.071,-220544.931,80590.153,66260.45,61164.61,55591.381,57358.108,225220.603
1.168,09-20-2026 21:57:49:456,-273037.198,-235827.847,86514.707,69235.557,61109.759,59739.194,61517.767,208558.54
1.172,09-20-2026 21:57:49:460,-273121.509,-257660.584,93460.735,72563.642,65004.193,65093.644,67840.45,177559.352
1.176,09-20-2026 21:57:49:464,-273117.396,-259843.857,90907.048,71101.301,68021.008,63585.349,67091.711,188796.558
1.18,09-20-2026 21:57:49:468,-273024.86,-243937.149,82735.25,67117.684,65881.811,57552.166,60602.642,215533.357
1.184,09-20-2026 21:57:49:472,-272963.169,-220544.931,80590.153,66260.45,61109.759,55591.381,57358.108,225220.603
1.188,09-20-2026 21:57:49:476,-273006.353,-236139.743,86412.559,69235.557,61109.759,59739.194,61517.767,208946.029
1.192,09-20-2026 21:57:49:480,-273090.663,-257660.584,93460.735,72563.642,65004.193,65093.644,67840.45,177946.842
1.196,09-20-2026 21:57:49:484,-273086.551,-259843.857,90804.901,71101.301,67966.156,63585.349,67091.711,189184.047
1.2,09-20-2026 21:57:49:488,-272994.014,-243937.149,82633.103,67067.259,65881.811,57476.751,60519.449,215533.357
1.204,09-20-2026 21:57:49:492,-272930.133,-220845.159,80482.284,66212.304,61089.016,55519.23,57303.972,225515.02
1.208,09-20-2026 21:57:49:496,-272971.439,-236430.405,86453.597,69225.543,61089.016,59712.417,61508.067,209374.199
1.212,09-20-2026 21:57:49:500,-273056.018,-257516.325,93335.789,72485.768,64950.504,65028.78,67772.993,178926.743
1.216,09-20-2026 21:57:49:504,-273052.084,-259655.477,90805.571,71053.245,67929.365,63531.213,67031.093,189931.847
1.22,09-20-2026 21:57:49:508,-272961.604,-244070.231,82607.667,67052.059,65833.129,57466.067,60518.868,215977.262
1.224,09-20-2026 21:57:49:512,-272898.662,-221150.752,80583.493,66212.304,61089.016,55594.108,57303.972,225515.02
1.228,09-20-2026 21:57:49:516,-272939.968,-236430.405,86453.597,69176.146,61033.852,59712.417,61508.067,209741.036
1.232,09-20-2026 21:57:49:520,-273024.547,-257516.325,93335.789,72485.768,64895.34,65028.78,67772.993,179293.579
1.236,09-20-2026 21:57:49:524,-273022.58,-259655.477,90805.571,71053.245,67929.365,63531.213,67031.093,190298.684
1.24,09-20-2026 21:57:49:528,-272930.133,-244375.824,82607.667,67052.059,65833.129,57540.945,60518.868,215977.262
1.244,09-20-2026 21:57:49:532,-272867.191,-221150.752,80482.284,66212.304,61089.016,55519.23,57303.972,225515.02
1.248,09-20-2026 21:57:49:536,-272910.464,-236430.405,86453.597,69176.146,60978.688,59712.417,61508.067,210107.873
1.252,09-20-2026 21:57:49:540,-272995.043,-257516.325,93335.789,72485.768,64895.34,65028.78,67772.993,179660.416
1.256,09-20-2026 21:57:49:544,-272993.076,-259655.477,90704.362,71053.245,67874.201,63456.334,67031.093,190665.521
1.26,09-20-2026 21:57:49:548,-272900.629,-244070.231,82607.667,67052.059,65777.965,57466.067,60518.868,215977.262
1.264,09-20-2026 21:57:49:552,-272837.686,-221150.752,80482.284,66212.304,61033.852,55519.23,57303.972,225515.02
1.268,09-20-2026 21:57:49:556,-272878.992,-236735.998,86352.388,69176.146,60978.688,59712.417,61508.067,210474.71
1.272,09-20-2026 21:57:49:560,-272965.538,-257516.325,93335.789,72485.768,64785.011,65028.78,67772.993,180027.253
1.276,09-20-2026 21:57:49:564,-272961.604,-259655.477,90704.362,71003.848,67819.037,63456.334,66948.66,191032.358
1.28,09-20-2026 21:57:49:568,-272869.158,-244070.231,82405.249,67002.662,65667.637,57391.188,60436.435,216344.099
1.284,09-20-2026 21:57:49:572,-272806.215,-221150.752,80482.284,66212.304,60923.524,55519.23,57303.972,225515.02
1.288,09-20-2026 21:57:49:576,-272849.488,-236735.998,86352.388,69176.146,60923.524,59637.539,61425.634,210474.71
1.292,09-20-2026 21:57:49:580,-272938.001,-257516.325,93234.58,72436.371,64785.011,65028.78,67772.993,180394.09
1.296,09-20-2026 21:57:49:584,-272934.067,-259655.477,90603.154,71003.848,67763.873,63456.334,66948.66,191766.032
1.3,09-20-2026 21:57:49:588,-272839.653,-244070.231,82405.249,67002.662,65667.637,57391.188,60436.435,216344.099
1.304,09-20-2026 21:57:49:592,-272776.89,-221356.567,80441.961,66181.548,60914.494,55427.051,57263.381,225591.016
1.308,09-20-2026 21:57:49:596,-272823.158,-236980.079,86350.958,69172.212,60859.285,59647.776,61483.435,210788.439
1.312,09-20-2026 21:57:49:600,-272909.659,-257711.277,93176.868,72412.097,64723.902,64923.682,67689.397,180830.843
1.316,09-20-2026 21:57:49:604,-272905.636,-259513.99,90528.007,70966.61,67705.177,63340.91,66944.682,191756.554
1.32,09-20-2026 21:57:49:608,-272811.088,-243890.478,82377.667,66929.214,65607.243,57311.303,60324.989,216427.516
1.324,09-20-2026 21:57:49:612,-272748.726,-221356.567,80340.082,66181.548,60859.285,55427.051,57180.635,225591.016
1.328,09-20-2026 21:57:49:616,-272792.983,-236679.627,86249.079,69122.367,60804.076,59572.406,61400.689,211140.881
1.332,09-20-2026 21:57:49:620,-272879.484,-257711.277,93176.868,72412.097,64668.693,64923.682,67689.397,181183.285
1.336,09-20-2026 21:57:49:624,-272877.472,-259513.99,90528.007,70916.765,67649.969,63340.91,66861.935,192461.439
1.34,09-20-2026 21:57:49:628,-272782.925,-244190.931,82377.667,66929.214,65607.243,57311.303,60407.735,216779.958
1.344,09-20-2026 21:57:49:632,-272718.551,-221657.019,80340.082,66131.704,60804.076,55427.051,57180.635,225591.016
1.348,09-20-2026 21:57:49:636,-272762.808,-236980.079,86249.079,69122.367,60748.867,59572.406,61400.689,211493.324
1.352,09-20-2026 21:57:49:640,-272853.333,-257711.277,93176.868,72362.253,64613.484,64923.682,67689.397,181535.728
1.356,09-20-2026 21:57:49:644,-272849.309,-259513.99,90528.007,70916.765,67649.969,63340.91,66944.682,192813.881
1.36,09-20-2026 21:57:49:648,-272754.761,-244791.835,82479.546,66979.059,65607.243,57386.673,60490.481,216427.516
1.364,09-20-2026 21:57:49:652,-272688.377,-221657.019,80238.203,66081.86,60859.285,55351.681,57180.635,225591.016
1.368,09-20-2026 21:57:49:656,-272732.633,-236679.627,86147.199,69072.523,60693.659,59572.406,61400.689,211845.766
1.372,09-20-2026 21:57:49:660,-272823.158,-257711.277,93074.988,72362.253,64613.484,64923.682,67689.397,182240.612
1.376,09-20-2026 21:57:49:664,-272819.134,-259513.99,90426.128,70916.765,67594.76,63340.91,66861.935,193166.324
1.38,09-20-2026 21:57:49:668,-272722.575,-244491.383,82275.788,66929.214,65552.034,57311.303,60407.735,216779.958
1.384,09-20-2026 21:57:49:672,-272656.19,-221657.019,80238.203,66081.86,60748.867,55351.681,57180.635,225591.016
1.388,09-20-2026 21:57:49:676,-272700.447,-236980.079,86147.199,69072.523,60693.659,59572.406,61400.689,212198.208
1.392,09-20-2026 21:57:49:680,-272790.971,-257711.277,93074.988,72312.408,64558.275,64848.312,67606.651,182593.054
1.396,09-20-2026 21:57:49:684,-272786.948,-259513.99,90426.128,70866.921,67539.551,63265.54,66779.189,193871.208
1.4,09-20-2026 21:57:49:688,-272690.388,-244190.931,82275.788,66879.37,65496.825,57235.933,60324.989,217132.401
1.404,09-20-2026 21:57:49:692,-272624.719,-221861.896,80237.353,66074.305,60722.135,55346.093,57114.072,225568.619
1.408,09-20-2026 21:57:49:696,-272668.841,-237241.326,86180.056,69086.426,60666.926,59525.869,61402.522,212482.388
1.412,09-20-2026 21:57:49:700,-272757.086,-257648.648,93044.903,72299.355,64531.543,64845.585,67624.979,182954.482
1.416,09-20-2026 21:57:49:704,-272754.985,-259423.197,90380.933,70843.496,67512.818,63249.67,66784.107,194027.447
1.42,09-20-2026 21:57:49:708,-272656.235,-244635.283,82286.561,66877.537,65470.092,57245.991,60309.387,216844.465
1.424,09-20-2026 21:57:49:712,-272591.102,-221861.896,80134.893,66024.103,60722.135,55270.097,57029.984,225568.619
1.428,09-20-2026 21:57:49:716,-272635.224,-236945.568,86077.596,69036.224,60556.508,59525.869,61318.435,212817.933
1.432,09-20-2026 21:57:49:720,-272723.469,-257648.648,93044.903,72299.355,64531.543,64845.585,67624.979,183290.027
1.436,09-20-2026 21:57:49:724,-272719.267,-259423.197,90380.933,70793.294,67512.818,63249.67,66784.107,194698.536
1.44,09-20-2026 21:57:49:728,-272622.618,-244339.525,82184.101,66827.335,65414.884,57169.996,60225.3,217180.01
1.444,09-20-2026 21:57:49:732,-272555.384,-221861.896,80032.433,65973.901,60611.717,55194.101,57029.984,225568.619
1.448,09-20-2026 21:57:49:736,-272601.607,-237537.085,86077.596,68986.022,60556.508,59449.874,61234.347,212817.933
1.452,09-20-2026 21:57:49:740,-272689.852,-257648.648,93044.903,72249.153,64476.334,64845.585,67540.892,183625.571
1.456,09-20-2026 21:57:49:744,-272685.65,-259423.197,90278.472,70743.092,67457.609,63173.674,66700.019,194698.536
1.46,09-20-2026 21:57:49:748,-272589.001,-244339.525,82081.641,66777.133,65359.675,57094,60141.213,217180.01
1.464,09-20-2026 21:57:49:752,-272523.868,-221861.896,80032.433,65973.901,60611.717,55194.101,57029.984,225568.619
1.468,09-20-2026 21:57:49:756,-272567.99,-237537.085,86077.596,68986.022,60501.3,59449.874,61234.347,212817.933
1.472,09-20-2026 21:57:49:760,-272658.336,-257648.648,93044.903,72249.153,64476.334,64845.585,67624.979,183290.027
1.476,09-20-2026 21:57:49:764,-272654.134,-259423.197,90278.472,70743.092,67457.609,63173.674,66700.019,194698.536
1.48,09-20-2026 21:57:49:768,-272555.384,-244635.283,82081.641,66726.931,65359.675,57094,60141.213,217180.01
1.484,09-20-2026 21:57:49:772,-272490.251,-221861.896,80032.433,65923.699,60556.508,55194.101,56945.897,225568.619
1.488,09-20-2026 21:57:49:776,-272534.373,-237537.085,86077.596,68935.82,60501.3,59449.874,61150.26,212817.933
1.492,09-20-2026 21:57:49:780,-272622.618,-257648.648,92942.443,72198.951,64421.125,64769.589,67540.892,183961.115
1.496,09-20-2026 21:57:49:784,-272618.416,-259423.197,90278.472,70692.89,67402.401,63173.674,66615.932,195034.08
1.5,09-20-2026 21:57:49:788,-272521.767,-244339.525,81979.18,66676.729,65304.466,57018.004,60057.126,217515.554
1.504,09-20-2026 21:57:49:792,-272457.26,-222106.871,80046.693,65863.572,60522.489,55153.153,56933.559,225393.158
1.508,09-20-2026 21:57:49:796,-272503.483,-237618.579,86049.656,68895.9,60467.727,59446.7,61187.811,212331.603
1.512,09-20-2026 21:57:49:800,-272591.728,-257520.393,92866.581,72127.068,64410.575,64719.476,67444.064,183114.968
1.516,09-20-2026 21:57:49:804,-272589.627,-259276.436,90221.207,70635.759,67367.711,63137.643,66609.897,194457.897
1.52,09-20-2026 21:57:49:808,-272492.978,-244642.749,82081.596,66658.937,65286.763,57111.613,60103.394,216800.03
1.524,09-20-2026 21:57:49:812,-272427.845,-222106.871,79944.948,65813.862,60522.489,55153.153,56850.142,225393.158
1.528,09-20-2026 21:57:49:816,-272471.967,-237618.579,85947.911,68846.189,60412.965,59446.7,61187.811,211987.878
1.532,09-20-2026 21:57:49:820,-272562.313,-257520.393,92866.581,72127.068,64355.813,64719.476,67444.064,182427.517
1.536,09-20-2026 21:57:49:824,-272556.01,-259276.436,90119.462,70586.049,67367.711,63062.318,66526.48,193770.447
1.54,09-20-2026 21:57:49:828,-272459.361,-244350.075,81878.106,66559.516,65232.002,56960.962,59936.56,216800.03
1.544,09-20-2026 21:57:49:832,-272394.228,-222106.871,79944.948,65813.862,60467.727,55153.153,56850.142,225393.158
1.548,09-20-2026 21:57:49:836,-272440.451,-237618.579,85947.911,68846.189,60412.965,59371.374,61104.394,211644.153
1.552,09-20-2026 21:57:49:840,-272528.696,-257520.393,92866.581,72077.357,64355.813,64719.476,67444.064,182083.792
1.556,09-20-2026 21:57:49:844,-272524.494,-259276.436,90119.462,70536.339,67312.949,63062.318,66526.48,193770.447
1.56,09-20-2026 21:57:49:848,-272427.845,-244350.075,81878.106,66559.516,65232.002,56960.962,59936.56,216800.03
1.564,09-20-2026 21:57:49:852,-272362.712,-222106.871,79944.948,65813.862,60467.727,55153.153,56850.142,225393.158
1.568,09-20-2026 21:57:49:856,-272404.733,-237618.579,85947.911,68796.479,60412.965,59371.374,61104.394,211644.153
1.572,09-20-2026 21:57:49:860,-272492.978,-257520.393,92866.581,72027.647,64355.813,64719.476,67360.648,182083.792
1.576,09-20-2026 21:57:49:864,-272488.776,-259276.436,90017.717,70486.628,67312.949,62986.992,66443.064,193770.447
1.58,09-20-2026 21:57:49:868,-272392.127,-244057.401,81878.106,66559.516,65177.24,56960.962,59936.56,216800.03
1.584,09-20-2026 21:57:49:872,-272324.893,-222106.871,79944.948,65813.862,60412.965,55153.153,56850.142,225393.158
1.588,09-20-2026 21:57:49:876,-272371.116,-237911.253,85947.911,68796.479,60412.965,59371.374,61104.394,211300.428
1.592,09-20-2026 21:57:49:880,-272461.462,-257520.393,92866.581,72027.647,64355.813,64719.476,67444.064,181740.067
1.596,09-20-2026 21:57:49:884,-272455.159,-259276.436,90017.717,70486.628,67312.949,63062.318,66443.064,193426.722
1.6,09-20-2026 21:57:49:888,-272358.51,-244350.075,81878.106,66509.806,65177.24,56960.962,59853.144,216800.03
1.604,09-20-2026 21:57:49:892,-272291.812,-222115.186,79921.3,65763.481,60413.994,55129.237,56795.291,225067.225
1.608,09-20-2026 21:57:49:896,-272338.035,-237842.32,85953.276,68801.262,60359.232,59374.995,61076.902,211111.153
1.612,09-20-2026 21:57:49:900,-272426.28,-257646.86,92803.147,71988.442,64356.841,64682.193,67373.388,180872.998
1.616,09-20-2026 21:57:49:904,-272422.078,-259103.076,90042.751,70494.452,67259.215,63014.217,66449.903,192115.389
1.62,09-20-2026 21:57:49:908,-272325.429,-244540.914,81863.801,66510.477,65123.506,56948.847,59901.558,216150.846
1.624,09-20-2026 21:57:49:912,-272258.195,-222115.186,79819.063,65713.682,60413.994,55053.419,56795.291,225067.225
1.628,09-20-2026 21:57:49:916,-272304.418,-237842.32,85953.276,68751.463,60359.232,59374.995,61076.902,208785.142
1.632,09-20-2026 21:57:49:920,-272394.764,-257355.616,92803.147,71988.442,64302.08,64682.193,67289.435,178159.318
1.636,09-20-2026 21:57:49:924,-272390.562,-259103.076,89940.514,70394.852,67204.454,62938.4,66365.95,190177.046
1.64,09-20-2026 21:57:49:928,-272291.812,-243958.428,81761.564,66410.877,65068.744,56873.03,59817.604,215763.177
1.644,09-20-2026 21:57:49:932,-272226.679,-222115.186,79819.063,65713.682,60359.232,55129.237,56795.291,224679.556
1.648,09-20-2026 21:57:49:936,-272272.902,-237842.32,85953.276,68751.463,60359.232,59374.995,61076.902,207622.136
1.652,09-20-2026 21:57:49:940,-272363.248,-257355.616,92803.147,71938.642,64356.841,64682.193,67373.388,176608.643
1.656,09-20-2026 21:57:49:944,-272356.945,-259103.076,89940.514,70394.852,67259.215,62938.4,66365.95,189014.04
1.66,09-20-2026 21:57:49:948,-272258.195,-243958.428,81761.564,66410.877,65068.744,56873.03,59817.604,214987.84
1.664,09-20-2026 21:57:49:952,-272193.062,-222115.186,79819.063,65713.682,60304.47,55053.419,56711.338,224291.888
1.668,09-20-2026 21:57:49:956,-272239.285,-237842.32,85953.276,68701.663,60304.47,59374.995,61076.902,206459.13
1.672,09-20-2026 21:57:49:960,-272331.732,-257355.616,92803.147,71938.642,64302.08,64682.193,67373.388,175833.306
1.676,09-20-2026 21:57:49:964,-272325.429,-259103.076,89940.514,70394.852,67259.215,62938.4,66365.95,188238.703
1.68,09-20-2026 21:57:49:968,-272226.679,-243958.428,81659.327,66410.877,65068.744,56797.213,59733.651,214987.84
1.684,09-20-2026 21:57:49:972,-272159.445,-222115.186,79819.063,65663.882,60304.47,55053.419,56711.338,224291.888
1.688,09-20-2026 21:57:49:976,-272205.668,-237842.32,85851.039,68651.863,60304.47,59299.178,60992.949,206459.13
1.692,09-20-2026 21:57:49:980,-272296.014,-257355.616,92700.91,71888.843,64302.08,64682.193,67289.435,175833.306
1.696,09-20-2026 21:57:49:984,-272289.711,-259103.076,89838.277,70295.253,67204.454,62862.583,66281.997,188238.703
1.7,09-20-2026 21:57:49:988,-272188.86,-243375.941,81557.09,66311.278,65013.983,56721.396,59649.698,214987.84
1.704,09-20-2026 21:57:49:992,-272125.47,-221559.745,79790.095,65679.752,60245.238,55003.575,56702.576,223866.087
1.708,09-20-2026 21:57:49:996,-272172.677,-238027.079,85940.401,68703.898,60300.983,59358.276,61027.504,205535.69
1.712,09-20-2026 21:57:50:000,-272264.945,-257435.01,92705.738,71876.773,64314.641,64629.756,67302.891,175250.685
1.716,09-20-2026 21:57:50:004,-272260.654,-258905.308,89835.595,70339.912,67213.394,62872.596,66285.26,187603.779
1.72,09-20-2026 21:57:50:008,-272159.803,-243614.211,81635.187,66324.242,64983.584,56760.735,59670.664,214700.888
1.724,09-20-2026 21:57:50:012,-272091.138,-221853.804,79687.59,65580.599,60245.238,55003.575,56617.773,223866.087
1.728,09-20-2026 21:57:50:016,-272140.491,-237733.02,85837.896,68654.322,60245.238,59281.878,60942.702,205535.69
1.732,09-20-2026 21:57:50:020,-272232.759,-257435.01,92705.738,71876.773,64314.641,64629.756,67302.891,174852.198
1.736,09-20-2026 21:57:50:024,-272228.467,-258905.308,89835.595,70290.335,67213.394,62872.596,66285.26,187603.779
1.74,09-20-2026 21:57:50:028,-272125.47,-243320.151,81532.682,66274.666,64927.839,56684.337,59585.862,214700.888
1.744,09-20-2026 21:57:50:032,-272058.952,-221559.745,79687.59,65580.599,60133.747,54927.177,56532.971,223866.087
1.748,09-20-2026 21:57:50:036,-272106.158,-237733.02,85837.896,68654.322,60245.238,59281.878,60942.702,205535.69
1.752,09-20-2026 21:57:50:040,-272200.572,-257435.01,92705.738,71827.197,64314.641,64629.756,67218.088,174852.198
1.756,09-20-2026 21:57:50:044,-272196.281,-258905.308,89733.09,70240.759,67157.649,62796.198,66200.458,187603.779
1.76,09-20-2026 21:57:50:048,-272093.284,-243320.151,81430.177,66274.666,64927.839,56607.939,59501.059,214700.888
1.764,09-20-2026 21:57:50:052,-272028.911,-221559.745,79687.59,65580.599,60133.747,54927.177,56532.971,223866.087
1.768,09-20-2026 21:57:50:056,-272076.118,-237733.02,85837.896,68654.322,60245.238,59281.878,60942.702,204738.716
1.772,09-20-2026 21:57:50:060,-272170.531,-257435.01,92705.738,71827.197,64314.641,64629.756,67218.088,174055.225
1.776,09-20-2026 21:57:50:064,-272166.24,-258905.308,89733.09,70240.759,67157.649,62796.198,66200.458,186806.805
1.78,09-20-2026 21:57:50:068,-272063.243,-243320.151,81430.177,66225.09,64872.094,56607.939,59501.059,214700.888
1.784,09-20-2026 21:57:50:072,-271996.724,-221559.745,79687.59,65580.599,60133.747,54927.177,56532.971,223467.6
1.788,09-20-2026 21:57:50:076,-272046.077,-237733.02,85837.896,68604.746,60189.493,59281.878,60942.702,203941.742
1.792,09-20-2026 21:57:50:080,-272138.345,-257435.01,92705.738,71827.197,64314.641,64629.756,67218.088,173258.251
1.796,09-20-2026 21:57:50:084,-272134.053,-258905.308,89733.09,70191.183,67157.649,62796.198,66115.655,186009.832
1.8,09-20-2026 21:57:50:088,-272028.911,-243026.092,81327.672,66175.513,64872.094,56531.54,59416.256,214302.401
1.804,09-20-2026 21:57:50:092,-271963.778,-221096.974,79577.038,65522.44,60103.886,54863.653,56508.026,223021.102
1.808,09-20-2026 21:57:50:096,-272013.13,-237686.975,85813.488,68590.619,60215.197,59274.01,60901.485,203221.435
1.812,09-20-2026 21:57:50:100,-272107.723,-257239.477,92561.122,71757.772,64278.074,64520.814,67153.715,172511.747
1.816,09-20-2026 21:57:50:104,-272103.61,-258720.727,89698.489,70174.196,67116.522,62771.879,66139.84,185846.217
1.82,09-20-2026 21:57:50:108,-272000.792,-243019.476,81417.302,66165.768,64834.632,56536.547,59380.673,214131.455
1.824,09-20-2026 21:57:50:112,-271932.932,-221393.224,79577.038,65472.953,60048.23,54863.653,56423.537,223021.102
1.828,09-20-2026 21:57:50:116,-271982.285,-237390.725,85711.251,68590.619,60215.197,59274.01,60901.485,203221.435
1.832,09-20-2026 21:57:50:120,-272076.878,-257239.477,92561.122,71757.772,64278.074,64520.814,67153.715,172511.747
1.836,09-20-2026 21:57:50:124,-272072.765,-258720.727,89596.252,70124.709,67116.522,62695.839,66055.35,185846.217
1.84,09-20-2026 21:57:50:128,-271969.947,-243019.476,81315.065,66116.281,64834.632,56536.547,59380.673,214131.455
1.844,09-20-2026 21:57:50:132,-271904.143,-221096.974,79577.038,65472.953,60048.23,54863.653,56423.537,223021.102
1.848,09-20-2026 21:57:50:136,-271953.496,-237686.975,85711.251,68541.133,60215.197,59274.01,60901.485,202817.36
1.852,09-20-2026 21:57:50:140,-272050.145,-257239.477,92561.122,71708.285,64278.074,64520.814,67153.715,172107.672
1.856,09-20-2026 21:57:50:144,-272046.032,-258720.727,89596.252,70124.709,67116.522,62695.839,66055.35,185038.067
1.86,09-20-2026 21:57:50:148,-271943.214,-242723.226,81212.828,66116.281,64778.976,56460.506,59296.183,214131.455
1.864,09-20-2026 21:57:50:152,-271877.411,-221096.974,79577.038,65472.953,60048.23,54863.653,56423.537,223021.102
1.868,09-20-2026 21:57:50:156,-271928.82,-237686.975,85711.251,68541.133,60159.541,59274.01,60816.996,202413.285
1.872,09-20-2026 21:57:50:160,-272025.469,-257239.477,92561.122,71708.285,64278.074,64520.814,67153.715,171703.598
1.876,09-20-2026 21:57:50:164,-272019.3,-258720.727,89494.016,70075.222,67116.522,62619.798,65970.861,185038.067
1.88,09-20-2026 21:57:50:168,-271916.481,-242723.226,81212.828,66066.795,64778.976,56460.506,59296.183,214131.455
1.884,09-20-2026 21:57:50:172,-271850.678,-221096.974,79577.038,65472.953,60048.23,54863.653,56423.537,222617.027
1.888,09-20-2026 21:57:50:176,-271902.087,-237686.975,85711.251,68491.646,60159.541,59197.969,60816.996,202009.21
1.892,09-20-2026 21:57:50:180,-271996.68,-257239.477,92458.885,71658.799,64278.074,64444.773,67069.226,171703.598
1.896,09-20-2026 21:57:50:184,-271990.51,-258720.727,89494.016,70025.736,67060.866,62619.798,65970.861,185038.067
1.9,09-20-2026 21:57:50:188,-271887.692,-242426.976,81110.591,66017.308,64723.321,56384.466,59211.693,214131.455
1.904,09-20-2026 21:57:50:192,-271824.258,-220942.926,79489.688,65442.287,59977.241,54872.773,56386.835,222663.653
1.908,09-20-2026 21:57:50:196,-271874.55,-237670.614,85717.957,68513.238,60202.01,59288.315,60867.153,202502.379
1.912,09-20-2026 21:57:50:200,-271971.109,-257086.68,92456.739,71633.72,64247.854,64465.158,67038.157,171857.243
1.916,09-20-2026 21:57:50:204,-271967.086,-258580.224,89495.759,70048.713,67057.469,62638.037,65939.211,185163.684
1.92,09-20-2026 21:57:50:208,-271864.491,-243047.371,81225.435,66036.664,64753.585,56471.504,59261.001,213792.692
1.924,09-20-2026 21:57:50:212,-271796.095,-221241.635,79489.688,65392.755,60033.433,54796.643,56386.835,222663.653
1.928,09-20-2026 21:57:50:216,-271848.398,-237670.614,85615.854,68463.706,60145.817,59212.185,60782.619,202099.154
1.932,09-20-2026 21:57:50:220,-271942.946,-257086.68,92456.739,71633.72,64247.854,64465.158,67038.157,171454.018
1.936,09-20-2026 21:57:50:224,-271936.911,-258580.224,89393.656,69999.182,67057.469,62561.907,65854.676,184760.458
1.94,09-20-2026 21:57:50:228,-271834.316,-242449.953,81123.332,65987.133,64697.393,56395.374,59176.467,213792.692
1.944,09-20-2026 21:57:50:232,-271769.943,-220644.217,79489.688,65343.224,59921.048,54796.643,56302.301,222663.653
1.948,09-20-2026 21:57:50:236,-271820.235,-237670.614,85615.854,68414.175,60089.625,59212.185,60782.619,201695.928
1.952,09-20-2026 21:57:50:240,-271916.794,-257086.68,92456.739,71584.189,64247.854,64465.158,67038.157,171454.018
1.956,09-20-2026 21:57:50:244,-271910.759,-258580.224,89393.656,69949.65,67001.276,62561.907,65854.676,184760.458
1.96,09-20-2026 21:57:50:248,-271808.165,-242449.953,81021.229,65937.601,64641.2,56395.374,59176.467,213792.692
1.964,09-20-2026 21:57:50:252,-271743.792,-220644.217,79489.688,65343.224,59921.048,54796.643,56302.301,222663.653
1.968,09-20-2026 21:57:50:256,-271794.083,-237371.905,85615.854,68414.175,60089.625,59212.185,60782.619,202099.154
1.972,09-20-2026 21:57:50:260,-271890.643,-257086.68,92456.739,71584.189,64247.854,64465.158,67038.157,171454.018
1.976,09-20-2026 21:57:50:264,-271886.62,-258580.224,89393.656,69900.119,67001.276,62561.907,65854.676,185163.684
1.98,09-20-2026 21:57:50:268,-271782.013,-242151.245,81021.229,65888.07,64641.2,56319.243,59091.933,214195.918
1.984,09-20-2026 21:57:50:272,-271717.64,-220644.217,79489.688,65343.224,59921.048,54796.643,56302.301,222663.653
1.988,09-20-2026 21:57:50:276,-271769.943,-237670.614,85615.854,68364.643,60089.625,59212.185,60698.084,201695.928
1.992,09-20-2026 21:57:50:280,-271866.503,-257086.68,92456.739,71534.657,64191.662,64465.158,67038.157,171454.018
1.996,09-20-2026 21:57:50:284,-271860.468,-258580.224,89291.553,69850.587,67001.276,62485.777,65770.142,185163.684
2,09-20-2026 21:57:50:288,-271755.862,-241852.536,80919.126,65838.539,64585.008,56243.113,59007.398,214195.918
2.004,09-20-2026 21:57:50:292,-271691.221,-220484.045,79431.126,65286.406,59880.502,54753.861,56231.759,222304.058
2.008,09-20-2026 21:57:50:296,-271743.524,-237477.092,85625.554,68390.616,60073.487,59141.777,60687.177,201438.615
2.012,09-20-2026 21:57:50:300,-271838.072,-257201.166,92363.354,71494.826,64190.5,64440.392,66961.133,170754.14
2.016,09-20-2026 21:57:50:304,-271834.048,-258414.955,89320.477,69831.856,66956.617,62536.202,65779.083,184664.435
2.02,09-20-2026 21:57:50:308,-271729.442,-242028.802,80952.565,65840.729,64576.47,56326.888,59050.493,213712.405
2.024,09-20-2026 21:57:50:312,-271665.069,-220484.045,79431.126,65286.406,59880.502,54753.861,56231.759,222304.058
2.028,09-20-2026 21:57:50:316,-271715.36,-237477.092,85625.554,68335.184,60073.487,59141.777,60687.177,201029.489
2.032,09-20-2026 21:57:50:320,-271813.932,-257201.166,92472.028,71494.826,64190.5,64440.392,66961.133,170754.14
2.036,09-20-2026 21:57:50:324,-271807.897,-258414.955,89320.477,69831.856,67020.946,62536.202,65779.083,184664.435
2.04,09-20-2026 21:57:50:328,-271703.291,-241725.354,80952.565,65785.297,64576.47,56244.097,58959.566,214121.531
2.044,09-20-2026 21:57:50:332,-271636.906,-220180.597,79431.126,65286.406,59880.502,54753.861,56231.759,222304.058
2.048,09-20-2026 21:57:50:336,-271691.221,-237477.092,85734.229,68446.048,60073.487,59224.568,60778.104,200620.362
2.052,09-20-2026 21:57:50:340,-271787.78,-256897.719,92472.028,71605.691,64319.156,64523.183,67052.059,170345.014
2.056,09-20-2026 21:57:50:344,-271783.757,-258414.955,89429.151,69942.721,67085.274,62618.993,65870.01,184255.309
2.06,09-20-2026 21:57:50:348,-271677.139,-241725.354,81169.913,66007.026,64769.455,56409.679,59141.419,213712.405
2.064,09-20-2026 21:57:50:352,-271610.754,-220180.597,79539.8,65452.703,60073.487,54919.443,56322.686,222304.058
2.068,09-20-2026 21:57:50:356,-271663.057,-237477.092,85951.577,68612.345,60330.8,59472.941,60959.957,200620.362
2.072,09-20-2026 21:57:50:360,-271759.617,-256897.719,92689.376,71771.988,64512.141,64688.765,67233.913,170345.014
2.076,09-20-2026 21:57:50:364,-271755.594,-258414.955,89646.499,70164.45,67278.259,62867.366,66051.864,184255.309
2.08,09-20-2026 21:57:50:368,-271648.976,-241421.907,81387.261,66284.188,64962.44,56658.051,59414.2,213712.405
2.084,09-20-2026 21:57:50:372,-271584.603,-219877.15,79974.497,65840.729,60395.129,55333.397,56686.393,222304.058
2.088,09-20-2026 21:57:50:376,-271636.906,-237173.645,86386.274,69055.804,60781.099,59886.895,61414.592,201029.489
2.092,09-20-2026 21:57:50:380,-271735.477,-256897.719,93232.747,72326.311,65091.096,65268.301,67779.475,170754.14
2.096,09-20-2026 21:57:50:384,-271729.442,-258414.955,90407.218,70885.071,68050.199,63612.484,66779.279,185073.562
2.1,09-20-2026 21:57:50:388,-271620.813,-240815.013,82365.329,67281.969,66056.021,57734.332,60414.396,214530.657
2.104,09-20-2026 21:57:50:392,-271556.44,-219321.664,81803.63,67588.457,62140.264,57120.956,58559.469,223053.02
2.108,09-20-2026 21:57:50:396,-271610.799,-236416.055,89110.638,71491.473,63058.741,62659.182,63736.491,203097.114
2.112,09-20-2026 21:57:50:400,-271699.133,-256744.52,96904.781,75828.159,68569.609,69120.445,71737.343,173800.146
2.116,09-20-2026 21:57:50:404,-271692.338,-258130.551,95443.379,76261.828,73161.998,68658.926,72207.981,189085.521
2.12,09-20-2026 21:57:50:408,-271583.619,-240112.14,89597.772,74093.485,73161.998,64966.776,67501.598,215834.926
2.124,09-20-2026 21:57:50:412,-271508.875,-216087.591,91059.174,76695.496,71325.042,66351.332,67972.236,225600.582
2.128,09-20-2026 21:57:50:416,-271549.645,-233643.992,100314.719,82766.856,74539.715,73735.633,75502.449,212013.583
2.132,09-20-2026 21:57:50:420,-271644.774,-256282.509,109083.129,87970.878,80969.06,81119.934,83503.301,184839.584
2.136,09-20-2026 21:57:50:424,-271624.389,-258130.551,108595.995,88838.215,86020.689,81581.453,84915.216,199700.364
2.14,09-20-2026 21:57:50:428,-271502.08,-235492.034,104211.79,88838.215,87857.644,79735.378,82562.024,219656.27
2.144,09-20-2026 21:57:50:432,-271420.541,-210081.453,106647.459,92307.564,86939.166,82042.972,83503.301,226449.77
2.148,09-20-2026 21:57:50:436,-271461.311,-229023.886,115415.87,97945.255,89694.6,88965.754,90562.876,217957.895
2.152,09-20-2026 21:57:50:440,-271556.44,-255358.488,123697.147,102281.94,95205.467,95427.018,98093.089,197577.396
2.156,09-20-2026 21:57:50:444,-271536.055,-257668.541,122235.745,102715.609,99797.857,95427.018,98563.728,209041.427
2.16,09-20-2026 21:57:50:448,-271413.746,-233181.981,116390.138,100980.935,99797.857,91734.867,94327.983,221779.239
2.164,09-20-2026 21:57:50:452,-271332.207,-205923.358,115903.004,101414.603,96123.945,91273.348,92916.068,226874.364
2.168,09-20-2026 21:57:50:456,-271372.976,-225789.812,123210.013,105751.289,97501.662,96811.574,98093.089,220505.458
2.172,09-20-2026 21:57:50:460,-271461.311,-254896.477,133439.825,111822.648,104849.485,105118.913,107976.494,205644.677
2.176,09-20-2026 21:57:50:464,-271434.131,-257206.53,134901.227,115291.997,112656.547,108349.545,111741.601,212862.77
2.18,09-20-2026 21:57:50:468,-271298.232,-228561.876,130517.021,115291.997,114034.264,106041.951,108917.771,222628.426
2.184,09-20-2026 21:57:50:472,-271209.898,-199455.211,132465.557,118327.676,113115.786,107888.026,109388.409,227723.551
2.188,09-20-2026 21:57:50:476,-271257.463,-219783.675,139772.566,122230.693,114034.264,112964.733,114565.431,223902.207
2.192,09-20-2026 21:57:50:480,-271345.797,-253510.446,143669.637,122664.362,115871.22,115733.846,118330.537,213287.364
2.196,09-20-2026 21:57:50:484,-271325.412,-256744.52,141233.968,121363.356,118626.653,114349.289,117389.261,214985.739
2.2,09-20-2026 21:57:50:488,-270836.177,-225789.812,137336.896,121797.025,120463.609,112503.214,115036.069,223053.02
2.204,09-20-2026 21:57:50:492,-270462.679,-195681.789,137596.49,123273.268,117967.009,112951.724,114458.858,228520.436
2.208,09-20-2026 21:57:50:496,-271133.232,-218472.879,141028.957,123669.52,115523.829,114595.829,116155.445,224529.085
2.212,09-20-2026 21:57:50:500,-271244.99,-253177.494,145021.828,124115.303,116953.983,117084.204,119654.655,214721.765
2.216,09-20-2026 21:57:50:504,-271244.99,-256285.37,142850.267,123421.863,120588.958,116151.064,119389.563,215520.035
2.22,09-20-2026 21:57:50:508,-270546.498,-224170.652,137526.439,122381.702,121125.265,112907.289,115625.261,223616.776
2.224,09-20-2026 21:57:50:512,-270015.644,-194645.83,137386.338,123124.674,117728.65,112729.548,114193.766,228748.513
2.228,09-20-2026 21:57:50:516,-271049.413,-216918.941,141449.26,124164.835,115881.367,115040.182,116579.591,224757.162
2.232,09-20-2026 21:57:50:520,-271161.171,-253177.494,145302.03,124486.789,117251.932,117395.251,119972.765,214949.842
2.236,09-20-2026 21:57:50:524,-271161.171,-256285.37,142850.267,123446.628,120588.958,116151.064,119389.563,215748.112
2.24,09-20-2026 21:57:50:528,-270155.343,-223134.693,137946.741,122827.485,121601.983,113396.077,116049.408,223730.814
2.244,09-20-2026 21:57:50:532,-269261.273,-193091.892,137946.741,123743.817,118324.547,113307.206,114776.968,228862.551
2.248,09-20-2026 21:57:50:536,-270909.714,-215365.003,142149.763,124883.041,116596.444,115706.711,117268.83,224985.239
2.252,09-20-2026 21:57:50:540,-271077.352,-252659.515,145792.382,125006.869,117788.239,117839.604,120449.93,215634.074
2.256,09-20-2026 21:57:50:544,-271077.352,-256285.37,142920.317,123595.223,120708.137,116195.499,119442.581,216090.228
2.26,09-20-2026 21:57:50:548,-269708.308,-222098.735,137666.54,122604.593,121304.035,113085.03,115784.316,223958.892
2.264,09-20-2026 21:57:50:552,-268367.203,-191537.954,137666.54,123471.394,117967.009,112996.16,114458.858,229090.629
2.268,09-20-2026 21:57:50:556,-270770.016,-214329.045,141939.612,124635.383,116358.085,115440.099,117003.738,225099.278
2.272,09-20-2026 21:57:50:560,-271021.473,-252141.536,145652.282,124858.275,117609.47,117706.298,120290.875,215748.112
2.276,09-20-2026 21:57:50:564,-270993.533,-256285.37,143130.469,123768.583,120886.906,116417.675,119601.636,216204.267
2.28,09-20-2026 21:57:50:568,-269400.971,-221580.755,138296.993,123174.205,121899.932,113707.124,116367.518,224072.93
2.284,09-20-2026 21:57:50:572,-267696.651,-190501.996,138296.993,124164.835,118741.675,113662.689,115148.096,229204.667
2.288,09-20-2026 21:57:50:576,-270630.317,-212775.107,142570.066,125328.824,117013.573,116151.064,117692.976,225441.393
2.292,09-20-2026 21:57:50:580,-270937.654,-251623.556,146282.735,125526.95,118324.547,118372.827,120927.095,216204.267
2.296,09-20-2026 21:57:50:584,-270909.714,-255767.391,144111.174,124808.744,121959.522,117439.686,120662.003,216546.382
2.3,09-20-2026 21:57:50:588,-268702.479,-218990.859,139417.799,124412.492,123091.727,114906.876,117533.921,224415.046
2.304,09-20-2026 21:57:50:592,-266536.908,-188258.998,139436.217,125233.471,119698.554,114771.425,116204.44,229473.648
2.308,09-20-2026 21:57:50:596,-270485.12,-212300.579,143207.269,125951.767,117658.286,116773.068,118290.126,225475.86
2.312,09-20-2026 21:57:50:600,-270855.265,-251438.037,146798.747,126062.274,118831.44,118912.756,121462.106,216291.751
2.316,09-20-2026 21:57:50:604,-270855.265,-255351.782,144763.576,125454.485,122605.934,118084.489,121288.299,216615.896
2.32,09-20-2026 21:57:50:608,-268449.324,-219009.858,140214.371,125169.009,123881.101,115668.713,118333.577,224503.425
2.324,09-20-2026 21:57:50:612,-265734.928,-187140.785,139915.081,125758.38,120259.627,115254.58,116725.861,229689.745
2.328,09-20-2026 21:57:50:616,-270300.048,-210623.26,143506.559,126274.079,117964.326,117049.157,118594.288,225691.956
2.332,09-20-2026 21:57:50:620,-270855.265,-250878.93,147038.179,126338.542,119086.473,119154.333,121722.817,216291.751
2.336,09-20-2026 21:57:50:624,-270793.575,-255351.782,145122.724,125813.633,122911.975,118429.6,121635.913,216831.993
2.34,09-20-2026 21:57:50:628,-267955.797,-217891.645,140513.66,125463.694,124136.135,115944.802,118594.288,224611.473
2.344,09-20-2026 21:57:50:632,-264624.493,-186022.572,139974.939,125878.096,120361.64,115323.602,116812.765,229797.793
2.348,09-20-2026 21:57:50:636,-270114.976,-210064.153,143506.559,126320.124,117964.326,117083.668,118637.74,225800.005
2.352,09-20-2026 21:57:50:640,-270793.575,-250878.93,147038.179,126338.542,119086.473,119154.333,121722.817,216291.751
2.356,09-20-2026 21:57:50:644,-270731.884,-255351.782,145062.866,125804.424,122911.975,118395.089,121592.462,216940.041
2.36,09-20-2026 21:57:50:648,-267523.961,-216214.325,140453.802,125491.321,124136.135,115944.802,118594.288,224935.618
2.364,09-20-2026 21:57:50:652,-264007.585,-184904.359,140034.797,125914.931,120310.634,115358.113,116812.765,229905.841
2.368,09-20-2026 21:57:50:656,-269929.903,-208945.94,143506.559,126329.333,117913.32,117083.668,118594.288,225908.053
2.372,09-20-2026 21:57:50:660,-270731.884,-250319.824,146978.321,126310.915,119035.467,119119.822,121679.365,216507.848
2.376,09-20-2026 21:57:50:664,-270731.884,-255351.782,145062.866,125786.007,122911.975,118360.578,121549.01,217048.09
2.38,09-20-2026 21:57:50:668,-267215.507,-216214.325,140453.802,125463.694,124136.135,115910.291,118550.836,224935.618
2.384,09-20-2026 21:57:50:672,-263020.532,-184345.252,139915.081,125832.051,120259.627,115289.091,116725.861,230013.89
2.388,09-20-2026 21:57:50:676,-269683.14,-208386.833,143446.701,126255.661,117862.313,117014.646,118550.836,226016.101
2.392,09-20-2026 21:57:50:680,-270670.193,-250319.824,146978.321,126264.87,118984.46,119085.311,121635.913,216615.896
2.396,09-20-2026 21:57:50:684,-270670.193,-254792.676,145003.008,125739.962,122860.968,118326.067,121505.558,217156.138
2.4,09-20-2026 21:57:50:688,-266845.362,-215096.112,140393.944,125426.859,124085.128,115841.268,118463.933,225151.715
2.404,09-20-2026 21:57:50:692,-262176.709,-182904.146,139858.039,125811.085,120211.079,115235.67,116674.139,230176.521
2.408,09-20-2026 21:57:50:696,-269471.335,-207368.577,143443.214,126220.927,117814.257,116970.523,118502.244,226040.107
2.412,09-20-2026 21:57:50:700,-270613.867,-249890.089,146914.574,126229.465,118962.734,119015.171,121562.332,216678.75
2.416,09-20-2026 21:57:50:704,-270613.867,-254549.981,144979.718,125700.086,122807.637,118271.663,121482.849,217223.015
2.42,09-20-2026 21:57:50:708,-266571.062,-214358.415,140313.299,125375.629,124006.048,115793.302,118422.761,225169.283
2.424,09-20-2026 21:57:50:712,-261473.612,-182321.66,139801.131,125768.393,120211.079,115173.711,116634.398,230285.374
2.428,09-20-2026 21:57:50:716,-269119.787,-206786.091,143329.399,126169.697,117764.323,116908.564,118462.502,226257.813
2.432,09-20-2026 21:57:50:720,-270613.867,-249890.089,146857.667,126169.697,118912.8,118984.192,121522.59,216787.603
2.436,09-20-2026 21:57:50:724,-270613.867,-254549.981,144865.903,125640.318,122757.703,118209.704,121403.366,217440.72
2.44,09-20-2026 21:57:50:728,-266307.401,-213775.928,140256.392,125324.398,123956.114,115731.343,118383.019,225386.989
2.444,09-20-2026 21:57:50:732,-260682.629,-181739.173,139744.224,125717.163,120111.212,115142.732,116594.656,230394.227
2.448,09-20-2026 21:57:50:736,-268944.012,-206203.604,143329.399,126135.543,117764.323,116908.564,118422.761,226257.813
2.452,09-20-2026 21:57:50:740,-270613.867,-249307.603,146800.759,126118.466,118862.867,118922.233,121482.849,216896.456
2.456,09-20-2026 21:57:50:744,-270613.867,-254549.981,144808.995,125572.011,122707.769,118178.724,121363.624,217440.72
2.46,09-20-2026 21:57:50:748,-265955.852,-212610.956,140142.577,125281.706,123906.18,115669.383,118303.537,225495.842
2.464,09-20-2026 21:57:50:752,-260155.306,-181156.687,139687.316,125674.471,120061.278,115111.752,116554.915,230503.08
2.468,09-20-2026 21:57:50:756,-268504.577,-205621.118,143272.491,126075.775,117664.455,116846.605,118383.019,226366.666
2.472,09-20-2026 21:57:50:760,-270525.979,-249307.603,146743.852,126058.698,118862.867,118891.253,121443.107,217223.015
2.476,09-20-2026 21:57:50:764,-270525.979,-254549.981,144752.088,125520.781,122657.835,118116.765,121323.883,217658.426
2.48,09-20-2026 21:57:50:768,-265780.078,-212610.956,140142.577,125213.4,123856.246,115669.383,118263.795,225495.842
2.484,09-20-2026 21:57:50:772,-259452.21,-180574.2,139687.316,125606.164,120011.344,115080.773,116515.173,230503.08
2.488,09-20-2026 21:57:50:776,-268240.916,-205038.632,143215.584,125998.929,117664.455,116784.646,118303.537,226584.372
2.492,09-20-2026 21:57:50:780,-270525.979,-249307.603,146630.036,125973.314,118812.933,118829.294,121363.624,217549.573
2.496,09-20-2026 21:57:50:784,-270525.979,-253967.494,144638.272,125461.012,122657.835,118054.806,121244.4,217767.279
2.5,09-20-2026 21:57:50:788,-265428.53,-211445.983,140085.669,125145.093,123756.379,115607.424,118184.312,225713.548
2.504,09-20-2026 21:57:50:792,-258923.949,-179610.84,139606.403,125526.547,119911.253,115051.626,116439.043,230667.276
2.508,09-20-2026 21:57:50:796,-267865.988,-204773.719,143160.599,125923.514,117597.981,116783.976,118273.317,226634.708
2.512,09-20-2026 21:57:50:800,-270451.638,-249108.314,146601.963,125906.974,118779.226,118794.739,121343.731,217742.38
2.516,09-20-2026 21:57:50:804,-270451.638,-253901.244,144627.41,125385.955,122618.273,118052.303,121224.105,217845.779
2.52,09-20-2026 21:57:50:808,-265388.073,-211963.113,140057.729,125071.689,123750.299,115608.453,118193.566,225600.717
2.524,09-20-2026 21:57:50:812,-258277.536,-179011.724,139549.987,125460.386,119960.471,114989.756,116399.168,230667.276
2.528,09-20-2026 21:57:50:816,-267650.517,-204174.603,143104.183,125857.353,117548.763,116722.106,118233.441,226738.107
2.532,09-20-2026 21:57:50:820,-270451.638,-248509.198,146545.547,125832.543,118779.226,118732.869,121263.98,217949.178
2.536,09-20-2026 21:57:50:824,-270451.638,-253901.244,144514.578,125319.794,122569.054,117959.499,121144.354,218052.577
2.54,09-20-2026 21:57:50:828,-265064.867,-210165.764,139944.898,125038.609,123701.081,115515.648,118113.815,225910.914
2.544,09-20-2026 21:57:50:832,-257846.595,-178412.608,139493.571,125394.225,119862.034,114958.822,116359.292,230770.675
2.548,09-20-2026 21:57:50:836,-267327.311,-203575.486,143047.767,125782.922,117548.763,116660.236,118193.566,226738.107
2.552,09-20-2026 21:57:50:840,-270451.638,-248509.198,146489.131,125782.922,118730.008,118670.999,121224.105,218155.976
2.556,09-20-2026 21:57:50:844,-270451.638,-253901.244,144514.578,125270.173,122519.836,117928.564,121104.478,218155.976
2.56,09-20-2026 21:57:50:848,-264957.132,-210764.88,139944.898,124955.907,123701.081,115484.713,118073.939,225807.515
2.564,09-20-2026 21:57:50:852,-257415.653,-178412.608,139437.156,125328.064,119862.034,114896.952,116319.417,230874.074
2.568,09-20-2026 21:57:50:856,-267004.104,-202976.37,142991.351,125741.571,117499.544,116629.302,118153.69,226841.507
2.572,09-20-2026 21:57:50:860,-270451.638,-248509.198,146432.715,125725.031,118730.008,118640.064,121184.229,218259.375
2.576,09-20-2026 21:57:50:864,-270451.638,-253901.244,144458.162,125204.012,122519.836,117866.694,121024.727,218259.375
2.58,09-20-2026 21:57:50:868,-264741.661,-210165.764,139888.482,124898.016,123651.862,115453.779,118034.064,225910.914
2.584,09-20-2026 21:57:50:872,-256769.241,-177813.492,139437.156,125270.173,119812.816,114866.017,116279.541,230874.074
2.588,09-20-2026 21:57:50:876,-266788.634,-202976.37,142991.351,125683.68,117499.544,116598.367,118113.815,226944.906
2.592,09-20-2026 21:57:50:880,-270343.902,-248509.198,146432.715,125675.41,118730.008,118609.13,121144.354,218259.375
2.596,09-20-2026 21:57:50:884,-270451.638,-253302.128,144401.746,125154.391,122519.836,117866.694,121024.727,218259.375
2.6,09-20-2026 21:57:50:888,-264633.926,-209566.648,139832.066,124873.206,123651.862,115422.844,117994.188,226014.313
2.604,09-20-2026 21:57:50:892,-256438.435,-177323.944,139369.251,125248.179,119807.72,114847.867,116244.941,230907.11
2.608,09-20-2026 21:57:50:896,-266557.293,-202147.97,142919.781,125646.04,117470.979,116540.163,118052.482,226996.583
2.612,09-20-2026 21:57:50:900,-270366.746,-248163.238,146303.88,125614.211,118688.031,118534.654,121078.148,218373.369
2.616,09-20-2026 21:57:50:904,-270366.746,-253006.95,144306.707,125112.906,122436.553,117779.165,120920.971,218373.369
2.62,09-20-2026 21:57:50:908,-264295.431,-208808.074,139813.067,124818.489,123556.241,115361.6,117934.599,226094.154
2.624,09-20-2026 21:57:50:912,-255962.253,-176718.48,139369.251,125200.436,119759.037,114787.428,116166.352,231007.38
2.628,09-20-2026 21:57:50:916,-266438.248,-202147.97,142919.781,125590.339,117422.297,116509.943,118013.187,226996.583
2.632,09-20-2026 21:57:50:920,-270366.746,-248163.238,146303.88,125566.468,118639.349,118504.434,121038.854,218373.369
2.636,09-20-2026 21:57:50:924,-270366.746,-253006.95,144251.23,125049.248,122485.235,117718.726,120881.676,218473.639
2.64,09-20-2026 21:57:50:928,-263938.295,-207597.146,139646.636,124746.874,123507.559,115270.941,117816.716,226294.694
2.644,09-20-2026 21:57:50:932,-255843.208,-176113.016,139313.774,125144.735,119661.673,114787.428,116166.352,231107.65
2.648,09-20-2026 21:57:50:936,-266200.157,-202147.97,142864.304,125542.596,117422.297,116479.724,118013.187,226996.583
2.652,09-20-2026 21:57:50:940,-270366.746,-248163.238,146248.403,125518.724,118639.349,118474.214,121038.854,218373.369
2.656,09-20-2026 21:57:50:944,-270366.746,-253006.95,144195.753,125001.505,122436.553,117688.506,120842.382,218473.639
2.66,09-20-2026 21:57:50:948,-263819.249,-207597.146,139646.636,124715.045,123507.559,115270.941,117816.716,226294.694
2.664,09-20-2026 21:57:50:952,-255367.026,-176113.016,139313.774,125104.949,119661.673,114726.989,116087.763,231107.65
2.668,09-20-2026 21:57:50:956,-266200.157,-201542.506,142808.827,125494.853,117373.615,116449.504,117934.599,226996.583
2.672,09-20-2026 21:57:50:960,-270366.746,-247557.774,146192.926,125463.024,118639.349,118413.775,120960.265,218473.639
2.676,09-20-2026 21:57:50:964,-270366.746,-253006.95,144140.276,124961.719,122387.871,117658.286,120803.087,218573.909
2.68,09-20-2026 21:57:50:968,-263938.295,-207597.146,139646.636,124683.216,123458.877,115210.502,117777.421,226294.694
2.684,09-20-2026 21:57:50:972,-255247.981,-176113.016,139258.297,125065.163,119612.991,114696.77,116087.763,231107.65
2.688,09-20-2026 21:57:50:976,-265843.021,-201542.506,142753.35,125447.109,117373.615,116389.065,117895.304,227096.853
2.692,09-20-2026 21:57:50:980,-270366.746,-247557.774,146137.449,125431.195,118639.349,118383.556,120920.971,218473.639
2.696,09-20-2026 21:57:50:984,-270366.746,-252401.486,144084.799,124913.976,122387.871,117597.847,120724.499,218674.179
2.7,09-20-2026 21:57:50:988,-263819.249,-206991.682,139591.159,124635.473,123410.195,115180.283,117738.127,226394.963
2.704,09-20-2026 21:57:50:992,-254652.173,-175217.873,139170.276,125011.384,119591.802,114621.444,116015.97,231232.551
2.708,09-20-2026 21:57:50:996,-265793.534,-200919.607,142712.223,125408.083,117299.541,116361.215,117856.502,227134.314
2.712,09-20-2026 21:57:51:000,-270327.809,-247427.508,146088.141,125384.748,118567.6,118310.957,120871.841,218637.969
2.716,09-20-2026 21:57:51:004,-270327.809,-252323.076,144095.796,124855.816,122323.006,117561.056,120715.2,218637.969
2.72,09-20-2026 21:57:51:008,-263461.621,-206427.122,139502.333,124575.794,123395.979,115131.377,117699.861,226434.615
2.724,09-20-2026 21:57:51:012,-254263.521,-175217.873,139114.933,124980.271,119591.802,114591.448,115976.809,231332.508
2.728,09-20-2026 21:57:51:016,-265534.433,-200919.607,142656.88,125345.856,117299.541,116301.223,117817.341,227234.271
2.732,09-20-2026 21:57:51:020,-270327.809,-247427.508,146032.798,125314.742,118567.6,118280.961,120832.681,218737.926
2.736,09-20-2026 21:57:51:024,-270327.809,-252323.076,143985.11,124809.146,122323.006,117501.064,120636.88,218737.926
2.74,09-20-2026 21:57:51:028,-263461.621,-205815.176,139446.99,124536.902,123347.208,115071.385,117621.54,226534.572
2.744,09-20-2026 21:57:51:032,-254263.521,-174605.927,139114.933,124925.822,119494.259,114561.452,115937.649,231332.508
2.748,09-20-2026 21:57:51:036,-265275.331,-200307.661,142656.88,125306.964,117250.769,116271.227,117778.181,227234.271
2.752,09-20-2026 21:57:51:040,-270327.809,-247427.508,146032.798,125268.072,118518.829,118220.969,120793.521,218737.926
2.756,09-20-2026 21:57:51:044,-270327.809,-252323.076,143929.767,124770.254,122274.235,117441.072,120597.72,218837.883
2.76,09-20-2026 21:57:51:048,-263072.969,-205203.23,139391.648,124498.01,123298.436,115011.393,117543.22,226634.529
2.764,09-20-2026 21:57:51:052,-253874.869,-174605.927,139059.59,124910.265,119445.487,114531.456,115898.489,231332.508
2.768,09-20-2026 21:57:51:056,-265404.882,-200307.661,142601.537,125275.85,117201.998,116241.231,117778.181,227234.271
2.772,09-20-2026 21:57:51:060,-270327.809,-247427.508,145977.455,125229.18,118518.829,118190.973,120793.521,218637.969
2.776,09-20-2026 21:57:51:064,-270327.809,-252323.076,143929.767,124739.14,122225.463,117441.072,120597.72,218737.926
2.78,09-20-2026 21:57:51:068,-263461.621,-205815.176,139446.99,124474.674,123298.436,115041.389,117582.38,226534.572
2.784,09-20-2026 21:57:51:072,-253874.869,-174605.927,139059.59,124863.595,119494.259,114501.46,115898.489,231332.508
2.788,09-20-2026 21:57:51:076,-265016.23,-199695.715,142546.194,125236.958,117201.998,116181.238,117699.861,227334.228
2.792,09-20-2026 21:57:51:080,-270327.809,-247427.508,145922.112,125198.066,118470.057,118160.977,120715.2,218737.926
2.796,09-20-2026 21:57:51:084,-270327.809,-251711.13,143819.081,124684.691,122176.692,117381.08,120519.399,218937.84
2.8,09-20-2026 21:57:51:088,-263072.969,-205203.23,139336.305,124420.226,123249.665,114981.397,117504.059,226634.529
2.804,09-20-2026 21:57:51:092,-253358.052,-174136.004,139006.795,124828.279,119433.373,114453.672,115849.181,231491.206
2.808,09-20-2026 21:57:51:096,-264981.629,-199910.963,142502.966,125214.16,117166.325,116159.736,117672.904,227294.889
2.812,09-20-2026 21:57:51:100,-270314.8,-247165.054,145835.253,125154.793,118468.671,118101.119,120660.707,218802.344
2.816,09-20-2026 21:57:51:104,-270314.8,-251460.88,143814.03,124650.18,122182.771,117336.332,120466.694,218902.256
2.82,09-20-2026 21:57:51:108,-263067.158,-204820.479,139334.561,124405.295,123195.708,114953.725,117478.891,226695.416
2.824,09-20-2026 21:57:51:112,-253358.052,-173522.314,138952.168,124798.596,119385.137,114424.257,115810.378,231491.206
2.828,09-20-2026 21:57:51:116,-264708.133,-199910.963,142502.966,125162.214,117118.089,116130.321,117634.102,227394.802
2.832,09-20-2026 21:57:51:120,-270314.8,-247165.054,145835.253,125110.269,118420.436,118071.704,120660.707,218902.256
2.836,09-20-2026 21:57:51:124,-270314.8,-251460.88,143704.774,124613.076,122182.771,117277.502,120427.891,219002.169
2.84,09-20-2026 21:57:51:128,-262656.914,-203593.1,139225.306,124368.191,123147.473,114894.896,117401.286,226895.24
2.844,09-20-2026 21:57:51:132,-253084.556,-173522.314,138952.168,124776.334,119336.902,114424.257,115771.576,231491.206
2.848,09-20-2026 21:57:51:136,-264844.881,-199910.963,142502.966,125132.531,117118.089,116130.321,117634.102,227394.802
2.852,09-20-2026 21:57:51:140,-270314.8,-247165.054,145780.625,125080.585,118420.436,118042.289,120621.904,219102.081
2.856,09-20-2026 21:57:51:144,-270314.8,-251460.88,143704.774,124575.973,122134.536,117277.502,120389.088,219002.169
2.86,09-20-2026 21:57:51:148,-262793.662,-204206.789,139225.306,124323.666,123147.473,114865.481,117401.286,226795.328
2.864,09-20-2026 21:57:51:152,-253084.556,-173522.314,138897.54,124716.967,119336.902,114365.427,115732.773,231491.206
2.868,09-20-2026 21:57:51:156,-264708.133,-199297.273,142393.71,125065.744,117069.854,116042.076,117556.497,227394.802
2.872,09-20-2026 21:57:51:160,-270314.8,-247165.054,145725.998,125013.798,118372.201,118012.874,120583.102,218902.256
2.876,09-20-2026 21:57:51:164,-270314.8,-251460.88,143650.147,124531.448,122086.301,117218.672,120350.286,219102.081
2.88,09-20-2026 21:57:51:168,-262793.662,-204206.789,139225.306,124301.404,123099.237,114865.481,117362.483,226795.328
2.884,09-20-2026 21:57:51:172,-252947.808,-173522.314,138897.54,124702.126,119288.667,114365.427,115732.773,231491.206
2.888,09-20-2026 21:57:51:176,-264708.133,-199297.273,142393.71,125058.323,117069.854,116042.076,117556.497,227394.802
2.892,09-20-2026 21:57:51:180,-270314.8,-247165.054,145671.37,124991.536,118372.201,117954.045,120544.299,219002.169
2.896,09-20-2026 21:57:51:184,-270314.8,-250847.191,143595.519,124486.923,122038.066,117159.843,120272.681,219201.993
2.9,09-20-2026 21:57:51:188,-262793.662,-203593.1,139116.05,124271.721,123051.002,114806.651,117323.681,226895.24
2.904,09-20-2026 21:57:51:192,-252822.191,-172858.289,138862.805,124664.709,119254.246,114331.229,115674.301,231607.122
2.908,09-20-2026 21:57:51:196,-264590.653,-199075.857,142352.583,125020.906,117014.511,116008.772,117523.952,227443.528
2.912,09-20-2026 21:57:51:200,-270334.783,-246633.306,145573.917,124946.699,118348.821,117888.778,120452.567,219309.997
2.916,09-20-2026 21:57:51:204,-270334.783,-250291.571,143533.739,124442.086,122018.173,117136.776,120259.895,219309.997
2.92,09-20-2026 21:57:51:208,-262629.242,-202734.122,139077.561,124212.041,122971.251,114765.077,117254.212,226959.39
2.924,09-20-2026 21:57:51:212,-252822.191,-172858.289,138809.116,124612.763,119206.592,114273.383,115635.766,231607.122
2.928,09-20-2026 21:57:51:216,-264450.552,-199075.857,142298.894,124968.961,116966.858,115950.926,117485.418,227540.356
2.932,09-20-2026 21:57:51:220,-270334.783,-246633.306,145573.917,124909.595,118301.167,117859.854,120452.567,219406.825
2.936,09-20-2026 21:57:51:224,-270334.783,-250291.571,143480.05,124404.982,121970.519,117050.006,120182.827,219406.825
2.94,09-20-2026 21:57:51:228,-262349.041,-202124.411,139023.872,124167.517,122923.597,114707.23,117215.677,227056.217
2.944,09-20-2026 21:57:51:232,-252682.09,-172858.289,138809.116,124575.66,119111.284,114273.383,115635.766,231607.122
2.948,09-20-2026 21:57:51:236,-264730.753,-199075.857,142298.894,124931.857,116966.858,115950.926,117485.418,227443.528
2.952,09-20-2026 21:57:51:240,-270334.783,-246633.306,145520.228,124865.07,118301.167,117830.931,120414.033,219406.825
2.956,09-20-2026 21:57:51:244,-270334.783,-250291.571,143426.361,124375.299,121970.519,117050.006,120144.292,219406.825
2.96,09-20-2026 21:57:51:248,-262489.142,-202124.411,139023.872,124145.254,122923.597,114678.307,117177.143,227056.217
2.964,09-20-2026 21:57:51:252,-252822.191,-172858.289,138755.427,124553.397,119111.284,114244.46,115597.232,231607.122
2.968,09-20-2026 21:57:51:256,-264450.552,-199075.857,142245.205,124902.174,116919.204,115893.08,117408.349,227540.356
2.972,09-20-2026 21:57:51:260,-270334.783,-246633.306,145520.228,124827.966,118301.167,117802.008,120336.964,219503.652
2.976,09-20-2026 21:57:51:264,-270334.783,-250291.571,143426.361,124323.353,121922.865,117021.083,120105.758,219406.825
2.98,09-20-2026 21:57:51:268,-262349.041,-202124.411,138970.183,124108.15,122875.944,114678.307,117138.608,227056.217
2.984,09-20-2026 21:57:51:272,-252541.989,-172858.289,138755.427,124516.293,119063.63,114215.537,115558.698,231607.122
2.988,09-20-2026 21:57:51:276,-264590.653,-199075.857,142245.205,124872.491,116919.204,115893.08,117369.815,227540.356
2.992,09-20-2026 21:57:51:280,-270334.783,-246633.306,145466.539,124783.441,118253.513,117744.162,120298.43,219600.48
2.996,09-20-2026 21:57:51:284,-270334.783,-249681.86,143372.672,124301.091,121875.211,116963.237,120067.223,219503.652
3,09-20-2026 21:57:51:288,-262349.041,-202124.411,138916.494,124078.467,122828.29,114620.461,117100.074,227153.045
3.004,09-20-2026 21:57:51:292,-252447.173,-172404.146,138738.082,124471.277,119030.281,114170.476,115512.385,231687.499
3.008,09-20-2026 21:57:51:296,-264399.635,-199138.978,142230.766,124824.256,116838.201,115840.24,117355.599,227577.728
3.012,09-20-2026 21:57:51:300,-270233.574,-246532.544,145401.048,124749.154,118220.165,117711.528,120274.022,219549.339
3.016,09-20-2026 21:57:51:304,-270375.865,-249570.593,143359.172,124260.992,121841.862,116934.224,120043.62,219549.339
3.02,09-20-2026 21:57:51:308,-262265.266,-201569.417,138845.55,124020.666,122794.941,114602.311,117048.397,227195.424
3.024,09-20-2026 21:57:51:312,-252304.882,-172404.146,138630.615,124441.236,118982.627,114141.686,115473.985,231687.499
3.028,09-20-2026 21:57:51:316,-264541.926,-199138.978,142177.032,124786.705,116838.201,115811.451,117317.199,227577.728
3.032,09-20-2026 21:57:51:320,-270375.865,-246532.544,145347.315,124704.093,118172.511,117653.95,120235.621,219644.915
3.036,09-20-2026 21:57:51:324,-270375.865,-249570.593,143251.704,124215.931,121794.209,116876.646,119966.819,219549.339
3.04,09-20-2026 21:57:51:328,-262265.266,-201569.417,138845.55,123998.135,122747.287,114573.522,117009.996,227195.424
3.044,09-20-2026 21:57:51:332,-252304.882,-172404.146,138630.615,124396.175,118982.627,114112.897,115473.985,231687.499
3.048,09-20-2026 21:57:51:336,-264399.635,-198531.368,142123.299,124749.154,116790.547,115782.662,117278.798,227577.728
3.052,09-20-2026 21:57:51:340,-270375.865,-246532.544,145347.315,124659.032,118172.511,117653.95,120197.221,219644.915
3.056,09-20-2026 21:57:51:344,-270375.865,-248962.983,143197.971,124170.869,121841.862,116819.068,119928.419,219644.915
3.06,09-20-2026 21:57:51:348,-261838.393,-200354.198,138738.082,123960.584,122699.633,114487.155,116933.196,227386.576
3.064,09-20-2026 21:57:51:352,-252304.882,-172404.146,138630.615,124358.624,118887.319,114084.108,115397.184,231687.499
3.068,09-20-2026 21:57:51:356,-264399.635,-199138.978,142123.299,124696.583,116742.893,115753.873,117278.798,227577.728
3.072,09-20-2026 21:57:51:360,-270375.865,-246532.544,145293.581,124598.95,118124.857,117596.372,120158.821,219644.915
3.076,09-20-2026 21:57:51:364,-270375.865,-249570.593,143144.237,124118.298,121746.555,116819.068,119890.019,219549.339
3.08,09-20-2026 21:57:51:368,-262265.266,-201569.417,138791.816,123900.503,122699.633,114487.155,116933.196,227195.424
3.084,09-20-2026 21:57:51:372,-252304.882,-172404.146,138576.882,124306.053,118887.319,114055.319,115397.184,231687.499
3.088,09-20-2026 21:57:51:376,-264541.926,-199138.978,142069.565,124636.501,116742.893,115696.295,117201.998,227577.728
3.092,09-20-2026 21:57:51:380,-270375.865,-246532.544,145186.114,124561.399,118124.857,117538.794,120120.42,219740.491
3.096,09-20-2026 21:57:51:384,-270375.865,-248962.983,143090.504,124088.257,121746.555,116761.49,119851.618,219644.915
3.1,09-20-2026 21:57:51:388,-262265.266,-200961.807,138738.082,123870.462,122651.979,114458.366,116894.796,227386.576
3.104,09-20-2026 21:57:51:392,-252355.218,-172114.646,138520.332,124278.828,118873.998,114007.934,115335.94,231751.961
3.108,09-20-2026 21:57:51:396,-264307.679,-198658.684,142028.393,124606.729,116686.03,115651.77,117161.988,227580.053
3.112,09-20-2026 21:57:51:400,-270283.91,-246920.57,145164.388,124519.288,118065.401,117494.001,120053.231,219710.317
3.116,09-20-2026 21:57:51:404,-270426.201,-248730.391,143038.29,124031.082,121680.304,116700.425,119786.932,219710.317
3.12,09-20-2026 21:57:51:408,-262173.311,-201071.778,138679.789,123827.055,122584.03,114404.722,116857.647,227390.421
3.124,09-20-2026 21:57:51:412,-252355.218,-172114.646,138520.332,124235.108,118826.433,113979.592,115297.897,231751.961
3.128,09-20-2026 21:57:51:416,-264592.262,-199261.957,142028.393,124570.295,116638.466,115651.77,117161.988,227580.053
3.132,09-20-2026 21:57:51:420,-270426.201,-246920.57,145111.235,124475.568,118017.837,117465.659,120053.231,219710.317
3.136,09-20-2026 21:57:51:424,-270426.201,-248730.391,142985.137,123980.075,121632.74,116672.083,119748.89,219710.317
3.14,09-20-2026 21:57:51:428,-262173.311,-200468.504,138626.637,123776.048,122536.465,114348.038,116819.604,227390.421
3.144,09-20-2026 21:57:51:432,-252355.218,-172114.646,138467.179,124184.102,118778.869,113951.25,115259.855,231751.961
3.148,09-20-2026 21:57:51:436,-264449.971,-198658.684,141922.088,124519.288,116590.901,115595.086,117085.903,227580.053
3.152,09-20-2026 21:57:51:440,-270426.201,-246317.297,145058.083,124417.275,118017.837,117408.975,119977.146,219805.133
3.156,09-20-2026 21:57:51:444,-270426.201,-248127.118,142931.985,123936.355,121632.74,116615.399,119672.804,219805.133
3.16,09-20-2026 21:57:51:448,-261746.438,-199865.231,138573.484,123761.475,122488.901,114291.354,116705.476,227580.053
3.164,09-20-2026 21:57:51:452,-252355.218,-172114.646,138467.179,124176.815,118683.74,113922.908,115259.855,231751.961
3.168,09-20-2026 21:57:51:456,-264734.553,-199261.957,141975.241,124512.002,116590.901,115595.086,117085.903,227580.053
3.172,09-20-2026 21:57:51:460,-270426.201,-246920.57,145058.083,124409.988,117970.272,117380.633,119977.146,219710.317
3.176,09-20-2026 21:57:51:464,-270426.201,-248730.391,142931.985,123914.495,121585.175,116587.057,119672.804,219710.317
3.18,09-20-2026 21:57:51:468,-262173.311,-200468.504,138520.332,123703.182,122488.901,114291.354,116705.476,227390.421
3.184,09-20-2026 21:57:51:472,-252497.509,-172114.646,138414.027,124118.522,118683.74,113894.566,115221.812,231751.961
3.188,09-20-2026 21:57:51:476,-264449.971,-198658.684,141868.936,124468.282,116543.337,115538.402,117047.86,227580.053
3.192,09-20-2026 21:57:51:480,-270426.201,-246920.57,145004.93,124358.982,117922.708,117323.949,119901.06,219710.317
3.196,09-20-2026 21:57:51:484,-270426.201,-248730.391,142878.833,123878.062,121537.61,116530.373,119596.719,219805.133
3.2,09-20-2026 21:57:51:488,-262031.02,-200468.504,138520.332,123681.322,122441.336,114234.67,116667.434,227485.237
3.204,09-20-2026 21:57:51:492,-252359.197,-171920.812,138367.446,124087.319,118634.968,113823.353,115149.929,231796.978
3.208,09-20-2026 21:57:51:496,-264623.152,-198973.575,141825.35,124412.224,116477.846,115491.687,116992.115,227566.061
3.212,09-20-2026 21:57:51:500,-270469.921,-246466.204,144916.507,124306.276,117884.665,117271.244,119849.383,219777.327
3.216,09-20-2026 21:57:51:504,-270469.921,-248269.722,142768.415,123825.982,121495.5,116464.882,119548.618,219873.484
3.22,09-20-2026 21:57:51:508,-261628.465,-198973.575,138419.838,123642.34,122339.591,114184.825,116578.563,227662.218
3.224,09-20-2026 21:57:51:512,-252359.197,-171920.812,138367.446,124073.192,118541.18,113823.353,115149.929,231796.978
3.228,09-20-2026 21:57:51:516,-264765.756,-198973.575,141877.743,124398.097,116430.952,115491.687,116992.115,227566.061
3.232,09-20-2026 21:57:51:520,-270469.921,-246466.204,144916.507,124285.087,117884.665,117271.244,119849.383,219777.327
3.236,09-20-2026 21:57:51:524,-270469.921,-248269.722,142768.415,123797.729,121448.606,116464.882,119548.618,219777.327
3.24,09-20-2026 21:57:51:528,-262198.882,-200175.92,138419.838,123607.024,122339.591,114184.825,116616.159,227469.904
3.244,09-20-2026 21:57:51:532,-252501.801,-171920.812,138315.053,124016.687,118541.18,113795.547,115112.333,231796.978
3.248,09-20-2026 21:57:51:536,-264623.152,-198973.575,141772.958,124348.655,116384.058,115436.076,116954.519,227566.061
3.252,09-20-2026 21:57:51:540,-270469.921,-246466.204,144864.115,124235.645,117837.771,117215.632,119811.788,219681.17
3.256,09-20-2026 21:57:51:544,-270469.921,-248269.722,142716.022,123769.477,121401.712,116409.271,119473.427,219873.484
3.26,09-20-2026 21:57:51:548,-261913.674,-199574.748,138367.446,123578.772,122292.697,114129.214,116540.967,227566.061
3.264,09-20-2026 21:57:51:552,-252359.197,-171920.812,138315.053,124016.687,118494.286,113767.742,115074.738,231796.978
3.268,09-20-2026 21:57:51:556,-264765.756,-198973.575,141772.958,124334.529,116384.058,115408.27,116916.924,227566.061
3.272,09-20-2026 21:57:51:560,-270469.921,-246466.204,144864.115,124221.519,117790.877,117187.827,119774.192,219585.013
3.276,09-20-2026 21:57:51:564,-270469.921,-248269.722,142716.022,123734.161,121354.818,116381.465,119473.427,219873.484
3.28,09-20-2026 21:57:51:568,-262056.278,-199574.748,138315.053,123536.393,122245.803,114101.409,116503.372,227566.061
3.284,09-20-2026 21:57:51:572,-252501.801,-171920.812,138262.661,123960.182,118494.286,113739.936,115074.738,231796.978
3.288,09-20-2026 21:57:51:576,-264623.152,-198973.575,141720.565,124278.024,116384.058,115380.465,116879.328,227566.061
3.292,09-20-2026 21:57:51:580,-270469.921,-246466.204,144811.722,124165.013,117790.877,117160.021,119736.596,219585.013
3.296,09-20-2026 21:57:51:584,-270469.921,-248269.722,142663.63,123684.719,121307.924,116353.66,119435.831,219873.484
3.3,09-20-2026 21:57:51:588,-261913.674,-199574.748,138315.053,123515.203,122198.909,114073.603,116503.372,227566.061
3.304,09-20-2026 21:57:51:592,-252393.261,-171838.244,138199.093,123923.57,118423.655,113681.732,115009.649,231829.12
3.308,09-20-2026 21:57:51:596,-264664.905,-198760.25,141700.404,124233.052,116325.497,115342.02,116854.026,227548.269
3.312,09-20-2026 21:57:51:600,-270515.34,-246621.593,144731.39,124117.896,117770.895,117085.322,119677.051,219484.34
3.316,09-20-2026 21:57:51:604,-270515.34,-247818.127,142588.796,123650.074,121267.825,116310.521,119375.929,219882.559
3.32,09-20-2026 21:57:51:608,-262096.421,-199358.517,138251.351,123462.945,122107.088,114041.461,116439.982,227647.823
3.324,09-20-2026 21:57:51:612,-252535.954,-171838.244,138199.093,123887.583,118377.029,113654.061,114972.009,231829.12
3.328,09-20-2026 21:57:51:616,-264522.211,-198760.25,141648.146,124211.46,116278.871,115286.677,116816.386,227548.269
3.332,09-20-2026 21:57:51:620,-270515.34,-246621.593,144679.131,124081.91,117724.269,117057.65,119639.411,219384.786
3.336,09-20-2026 21:57:51:624,-270515.34,-247818.127,142536.538,123614.088,121267.825,116255.178,119300.648,219982.114
3.34,09-20-2026 21:57:51:628,-261953.728,-198760.25,138251.351,123448.551,122107.088,114013.79,116402.342,227647.823
3.344,09-20-2026 21:57:51:632,-252393.261,-171838.244,138146.834,123858.794,118330.403,113626.389,114934.369,231829.12
3.348,09-20-2026 21:57:51:636,-264807.599,-198760.25,141595.887,124153.882,116232.245,115259.005,116778.745,227548.269
3.352,09-20-2026 21:57:51:640,-270515.34,-246621.593,144679.131,124031.529,117677.643,117029.979,119601.771,219285.231
3.356,09-20-2026 21:57:51:644,-270515.34,-247219.86,142484.28,123556.509,121267.825,116227.507,119300.648,219982.114
3.36,09-20-2026 21:57:51:648,-261668.341,-198161.983,138146.834,123376.578,122060.462,113930.775,116327.061,227846.933
3.364,09-20-2026 21:57:51:652,-252535.954,-171838.244,138146.834,123801.216,118283.778,113598.718,114934.369,231829.12
3.368,09-20-2026 21:57:51:656,-264807.599,-199358.517,141595.887,124110.699,116232.245,115231.334,116778.745,227448.714
3.372,09-20-2026 21:57:51:660,-270515.34,-246621.593,144626.873,123988.345,117677.643,117002.307,119601.771,219185.676
3.376,09-20-2026 21:57:51:664,-270515.34,-247818.127,142484.28,123527.72,121221.199,116199.835,119263.008,219882.559
3.38,09-20-2026 21:57:51:668,-262096.421,-199358.517,138146.834,123354.986,122013.837,113930.775,116327.061,227647.823
3.384,09-20-2026 21:57:51:672,-252535.954,-171838.244,138094.576,123765.23,118283.778,113571.046,114896.728,231829.12
3.388,09-20-2026 21:57:51:676,-264664.905,-198760.25,141543.629,124081.91,116185.619,115203.663,116703.465,227548.269
3.392,09-20-2026 21:57:51:680,-270515.34,-246621.593,144574.615,123945.162,117631.017,116946.964,119526.49,219285.231
3.396,09-20-2026 21:57:51:684,-270515.34,-247219.86,142379.763,123477.34,121127.948,116116.821,119187.727,219982.114
3.4,09-20-2026 21:57:51:688,-261811.034,-198760.25,138094.576,123319,121967.211,113875.432,116289.421,227747.378
3.404,09-20-2026 21:57:51:692,-252527.997,-171776.732,138061.138,123733.491,118173.226,113538.636,114831.998,231856.165
3.408,09-20-2026 21:57:51:696,-264876.218,-199188.018,141492.488,124034.077,116123.66,115165.977,116671.993,227454.123
3.412,09-20-2026 21:57:51:700,-270553.562,-246859.818,144507.917,123902.112,117567.672,116903.647,119488.313,219150.271
3.416,09-20-2026 21:57:51:704,-270553.562,-247455.716,142376.321,123432.904,121107.831,116103.767,119187.906,219950.643
3.42,09-20-2026 21:57:51:708,-262037.547,-198592.12,138061.138,123278.945,121899.709,113842.039,116258.933,227754.262
3.424,09-20-2026 21:57:51:712,-252527.997,-171776.732,138009.147,123696.834,118173.226,113483.472,114794.447,231856.165
3.428,09-20-2026 21:57:51:716,-264734.285,-199188.018,141492.488,124004.751,116077.079,115138.395,116634.442,227454.123
3.432,09-20-2026 21:57:51:720,-270553.562,-246859.818,144455.927,123872.787,117567.672,116876.065,119488.313,219150.271
3.436,09-20-2026 21:57:51:724,-270553.562,-247455.716,142272.34,123403.579,121061.25,116048.603,119112.804,219950.643
3.44,09-20-2026 21:57:51:728,-261895.613,-198592.12,138009.147,123242.289,121899.709,113814.457,116183.831,227754.262
3.444,09-20-2026 21:57:51:732,-252527.997,-171776.732,138009.147,123682.171,118126.645,113483.472,114794.447,231856.165
3.448,09-20-2026 21:57:51:736,-265018.152,-199188.018,141440.498,123968.094,116030.498,115110.813,116634.442,227454.123
3.452,09-20-2026 21:57:51:740,-270553.562,-246859.818,144403.937,123821.467,117521.091,116820.901,119413.211,219250.318
3.456,09-20-2026 21:57:51:744,-270553.562,-247455.716,142220.35,123359.591,121061.25,115993.439,119075.253,220050.689
3.46,09-20-2026 21:57:51:748,-261611.746,-197400.325,137905.167,123198.3,121806.547,113759.293,116108.729,227954.355
3.464,09-20-2026 21:57:51:752,-252811.864,-171776.732,137957.157,123623.52,118033.483,113428.308,114756.896,231856.165
3.468,09-20-2026 21:57:51:756,-265018.152,-199783.915,141440.498,123916.775,115983.917,115083.231,116596.891,227454.123
3.472,09-20-2026 21:57:51:760,-270553.562,-246859.818,144403.937,123762.816,117474.51,116793.319,119413.211,219350.364
3.476,09-20-2026 21:57:51:764,-270553.562,-247455.716,142220.35,123300.94,120968.088,115965.857,119037.702,219950.643
3.48,09-20-2026 21:57:51:768,-262037.547,-199188.018,137957.157,123154.312,121759.966,113759.293,116146.28,227754.262
3.484,09-20-2026 21:57:51:772,-252811.864,-171776.732,137905.167,123572.2,118033.483,113400.726,114719.345,231856.165
3.488,09-20-2026 21:57:51:776,-265018.152,-199783.915,141388.508,123872.787,115983.917,115028.067,116559.341,227554.17
3.492,09-20-2026 21:57:51:780,-270553.562,-246859.818,144351.947,123733.491,117474.51,116738.154,119338.109,219550.457
3.496,09-20-2026 21:57:51:784,-270553.562,-247455.716,142168.36,123256.951,120921.507,115938.275,119000.151,220050.689
3.5,09-20-2026 21:57:51:788,-262037.547,-198592.12,137905.167,123102.993,121713.385,113704.129,116108.729,227754.262
3.504,09-20-2026 21:57:51:792,-252744.407,-171916.297,137859.882,123512.029,118006.035,113351.016,114681.034,231868.19
3.508,09-20-2026 21:57:51:796,-264812.292,-199156.904,141319.262,123816.192,115898.265,114979.117,116507.887,227512.953
3.512,09-20-2026 21:57:51:800,-270565.587,-247124.061,144262.316,123678.595,117410.361,116688.623,119304.09,219576.743
3.516,09-20-2026 21:57:51:804,-270565.587,-247124.061,142093.75,123215.109,120892.763,115901.708,118968.546,220060.658
3.52,09-20-2026 21:57:51:808,-262146.132,-198564.717,137859.882,123055.786,121671.721,113676.636,116060.494,227706.519
3.524,09-20-2026 21:57:51:812,-252744.407,-171916.297,137808.25,123468.578,117960.214,113323.881,114643.751,231868.19
3.528,09-20-2026 21:57:51:816,-264952.617,-199749.091,141319.262,123772.74,115898.265,114951.982,116470.604,227512.953
3.532,09-20-2026 21:57:51:820,-270565.587,-247124.061,144262.316,123627.901,117410.361,116661.488,119266.807,219576.743
3.536,09-20-2026 21:57:51:824,-270565.587,-247124.061,142042.117,123178.899,120892.763,115847.437,118893.98,220157.441
3.54,09-20-2026 21:57:51:828,-261725.159,-197972.53,137808.25,123019.576,121625.9,113622.366,115985.929,227900.085
3.544,09-20-2026 21:57:51:832,-252744.407,-171916.297,137808.25,123439.61,117914.393,113296.746,114606.469,231868.19
3.548,09-20-2026 21:57:51:836,-265092.941,-199749.091,141267.629,123722.046,115852.444,114924.847,116470.604,227512.953
3.552,09-20-2026 21:57:51:840,-270565.587,-247124.061,144210.684,123577.207,117410.361,116634.353,119266.807,219576.743
3.556,09-20-2026 21:57:51:844,-270565.587,-247124.061,142042.117,123135.447,120846.942,115820.302,118893.98,220060.658
3.56,09-20-2026 21:57:51:848,-262005.807,-198564.717,137756.617,122990.608,121625.9,113622.366,115985.929,227803.302
3.564,09-20-2026 21:57:51:852,-252884.731,-171916.297,137756.617,123388.916,117914.393,113269.611,114569.186,231868.19
3.568,09-20-2026 21:57:51:856,-264952.617,-199749.091,141215.997,123678.595,115852.444,114870.577,116396.039,227512.953
3.572,09-20-2026 21:57:51:860,-270565.587,-247124.061,144159.051,123555.481,117364.54,116580.083,119192.242,219576.743
3.576,09-20-2026 21:57:51:864,-270565.587,-247124.061,141990.485,123091.995,120801.12,115766.032,118819.415,220157.441
3.58,09-20-2026 21:57:51:868,-262146.132,-198564.717,137756.617,122947.156,121580.079,113568.096,115948.646,227803.302
3.584,09-20-2026 21:57:51:872,-252884.731,-171916.297,137756.617,123359.948,117868.572,113242.476,114569.186,231868.19
3.588,09-20-2026 21:57:51:876,-265092.941,-199749.091,141215.997,123649.627,115852.444,114870.577,116396.039,227512.953
3.592,09-20-2026 21:57:51:880,-270565.587,-247124.061,144107.419,123490.304,117364.54,116552.948,119154.959,219673.526
3.596,09-20-2026 21:57:51:884,-270565.587,-247124.061,141938.852,123012.334,120801.12,115738.897,118782.132,220157.441
3.6,09-20-2026 21:57:51:888,-262005.807,-198564.717,137704.985,122896.462,121580.079,113540.961,115874.081,227803.302
3.604,09-20-2026 21:57:51:892,-253026.128,-172226.315,137702.303,123318.687,117852.389,113201.349,114489.658,231833.322
3.608,09-20-2026 21:57:51:896,-265055.435,-200017.089,141170.668,123611.942,115782.394,114829.45,116353.794,227564.586
3.612,09-20-2026 21:57:51:900,-270586.15,-247320.532,144069.599,123454.585,117346.39,116511.821,119112.714,219786
3.616,09-20-2026 21:57:51:904,-270586.15,-247320.532,141895.401,122996.822,120796.382,115697.77,118739.887,220165.443
3.62,09-20-2026 21:57:51:908,-262013.541,-198834.503,137650.536,122846.618,121532.38,113499.834,115869.119,227754.307
3.624,09-20-2026 21:57:51:912,-253026.128,-172226.315,137650.536,123261.466,117852.389,113147.079,114452.376,231833.322
3.628,09-20-2026 21:57:51:916,-265193.703,-200017.089,141118.901,123547.569,115736.394,114775.18,116316.511,227469.725
3.632,09-20-2026 21:57:51:920,-270586.15,-247320.532,144017.833,123383.06,117300.39,116457.551,119075.432,219880.86
3.636,09-20-2026 21:57:51:924,-270586.15,-247320.532,141843.634,122939.601,120750.382,115643.5,118665.322,220165.443
3.64,09-20-2026 21:57:51:928,-261875.273,-198243.21,137598.769,122810.855,121486.38,113445.564,115757.271,227849.168
3.644,09-20-2026 21:57:51:932,-253302.664,-172226.315,137650.536,123240.009,117760.389,113119.944,114415.093,231833.322
3.648,09-20-2026 21:57:51:936,-265193.703,-200608.382,141118.901,123526.111,115736.394,114748.045,116279.228,227469.725
3.652,09-20-2026 21:57:51:940,-270586.15,-247320.532,144017.833,123383.06,117300.39,116457.551,119075.432,219786
3.656,09-20-2026 21:57:51:944,-270586.15,-247320.532,141843.634,122932.449,120750.382,115616.365,118665.322,220165.443
3.66,09-20-2026 21:57:51:948,-262151.809,-198834.503,137598.769,122775.092,121486.38,113445.564,115794.553,227754.307
3.664,09-20-2026 21:57:51:952,-253302.664,-172226.315,137598.769,123197.093,117760.389,113092.808,114415.093,231833.322
3.668,09-20-2026 21:57:51:956,-265470.238,-200608.382,141067.134,123483.196,115690.394,114720.91,116241.946,227469.725
3.672,09-20-2026 21:57:51:960,-270586.15,-247320.532,143966.066,123318.687,117300.39,116403.281,119000.866,219880.86
3.676,09-20-2026 21:57:51:964,-270586.15,-247320.532,141791.867,122868.076,120704.382,115589.23,118628.039,220165.443
3.68,09-20-2026 21:57:51:968,-262290.077,-198834.503,137547.003,122746.482,121440.38,113391.294,115757.271,227754.307
3.684,09-20-2026 21:57:51:972,-253440.932,-172226.315,137547.003,123161.331,117760.389,113065.673,114377.81,231833.322
3.688,09-20-2026 21:57:51:976,-265331.97,-200608.382,141015.368,123447.433,115690.394,114666.64,116204.663,227469.725
3.692,09-20-2026 21:57:51:980,-270586.15,-247320.532,143914.299,123290.077,117254.39,116349.011,118963.584,219880.86
3.696,09-20-2026 21:57:51:984,-270586.15,-247320.532,141688.334,122832.313,120704.382,115534.96,118553.474,220260.304
3.7,09-20-2026 21:57:51:988,-261875.273,-197651.916,137495.236,122703.567,121394.38,113337.024,115645.422,227944.029
3.704,09-20-2026 21:57:51:992,-253577.367,-172821.498,137544.946,123114.526,117627.486,113013.326,114312.99,231772.748
3.708,09-20-2026 21:57:51:996,-265386.956,-201145.628,140996.95,123387.62,115632.995,114627.658,116196.169,227433.828
3.712,09-20-2026 21:57:52:000,-270620.751,-247762.426,143873.619,123227.76,117219.522,116294.919,118928.625,219793.555
3.716,09-20-2026 21:57:52:004,-270620.751,-247172.34,141676.89,122794.807,120664.551,115474.521,118522.45,220170.852
3.72,09-20-2026 21:57:52:008,-262031.959,-198195.198,137440.34,122654.929,121344.491,113304.435,115642.293,227905.45
3.724,09-20-2026 21:57:52:012,-253711.567,-172821.498,137544.946,123081.222,117627.486,112986.861,114312.99,231772.748
3.728,09-20-2026 21:57:52:016,-265789.555,-201145.628,140996.95,123360.976,115632.995,114627.658,116159.244,227339.503
3.732,09-20-2026 21:57:52:020,-270620.751,-247762.426,143873.619,123207.778,117219.522,116294.919,118891.7,219793.555
3.736,09-20-2026 21:57:52:024,-270620.751,-247172.34,141624.587,122768.163,120664.551,115448.057,118485.524,220170.852
3.74,09-20-2026 21:57:52:028,-261897.759,-197605.112,137388.037,122654.929,121344.491,113251.506,115568.443,227999.774
3.744,09-20-2026 21:57:52:032,-253979.967,-172821.498,137544.946,123067.9,117582.156,112986.861,114312.99,231772.748
3.748,09-20-2026 21:57:52:036,-265789.555,-201145.628,140944.647,123334.333,115632.995,114601.194,116159.244,227339.503
3.752,09-20-2026 21:57:52:040,-270620.751,-247762.426,143821.316,123167.813,117219.522,116241.99,118891.7,219793.555
3.756,09-20-2026 21:57:52:044,-270620.751,-247172.34,141572.284,122728.198,120619.222,115395.128,118448.599,220170.852
3.76,09-20-2026 21:57:52:048,-261897.759,-198195.198,137335.734,122594.982,121299.162,113225.041,115568.443,227905.45
3.764,09-20-2026 21:57:52:052,-253845.767,-172821.498,137440.34,123021.275,117582.156,112933.932,114276.065,231772.748
3.768,09-20-2026 21:57:52:056,-265923.755,-201735.714,140944.647,123301.029,115587.666,114574.729,116122.319,227339.503
3.772,09-20-2026 21:57:52:060,-270620.751,-247762.426,143769.013,123141.169,117219.522,116215.526,118854.775,219793.555
3.776,09-20-2026 21:57:52:064,-270620.751,-247172.34,141519.981,122688.234,120619.222,115368.663,118411.674,220170.852
3.78,09-20-2026 21:57:52:068,-262166.159,-198195.198,137283.431,122568.339,121253.833,113198.577,115531.518,227905.45
3.784,09-20-2026 21:57:52:072,-254114.166,-173411.584,137440.34,122981.31,117536.827,112933.932,114239.14,231772.748
3.788,09-20-2026 21:57:52:076,-265789.555,-201735.714,140892.344,123247.742,115587.666,114548.265,116085.394,227339.503
3.792,09-20-2026 21:57:52:080,-270620.751,-247762.426,143716.71,123114.526,117174.192,116189.062,118817.85,219793.555
3.796,09-20-2026 21:57:52:084,-270620.751,-247172.34,141467.678,122668.251,120619.222,115342.199,118374.749,220265.176
3.8,09-20-2026 21:57:52:088,-261763.559,-197605.112,137231.128,122541.696,121208.503,113145.648,115420.743,227999.774
3.804,09-20-2026 21:57:52:092,-254198.924,-173445.424,137414.546,122973.665,117460.608,112895.443,114197.119,231693.802
3.808,09-20-2026 21:57:52:096,-266113.477,-202328.974,140891.897,123231.694,115519.135,114519.61,116066.619,227247.951
3.812,09-20-2026 21:57:52:100,-270646.187,-248306.87,143642.636,123043.403,117144.554,116117.581,118742.57,219775.137
3.816,09-20-2026 21:57:52:104,-270646.187,-247127.95,141410.904,122611.031,120530.843,115305.497,118339.344,220153.507
3.82,09-20-2026 21:57:52:108,-262098.791,-198202.753,137206.943,122492.477,121162.951,113105.013,115406.795,227910.099
3.824,09-20-2026 21:57:52:112,-254457.936,-173445.424,137362.646,122903.928,117460.608,112843.05,114160.462,231693.802
3.828,09-20-2026 21:57:52:116,-265983.971,-202328.974,140839.996,123168.93,115473.985,114467.217,115993.305,227247.951
3.832,09-20-2026 21:57:52:120,-270646.187,-248306.87,143642.636,122987.613,117144.554,116091.384,118705.913,219680.544
3.836,09-20-2026 21:57:52:124,-270646.187,-247127.95,141307.103,122534.319,120485.693,115226.908,118266.03,220248.1
3.84,09-20-2026 21:57:52:128,-262098.791,-198202.753,137155.043,122429.713,121117.8,113052.62,115370.138,227910.099
3.844,09-20-2026 21:57:52:132,-254457.936,-173445.424,137362.646,122869.059,117415.457,112816.854,114123.805,231693.802
3.848,09-20-2026 21:57:52:136,-266242.983,-202328.974,140839.996,123120.114,115428.834,114441.021,115993.305,227153.358
3.852,09-20-2026 21:57:52:140,-270646.187,-248306.87,143590.736,122931.823,117099.403,116038.992,118669.256,219680.544
3.856,09-20-2026 21:57:52:144,-270646.187,-247127.95,141307.103,122506.424,120485.693,115200.712,118229.373,220153.507
3.86,09-20-2026 21:57:52:148,-262098.791,-198202.753,137103.142,122408.792,121072.649,113026.424,115333.481,227910.099
3.864,09-20-2026 21:57:52:152,-254716.948,-174034.884,137310.745,122827.217,117370.307,112790.658,114087.148,231599.209
3.868,09-20-2026 21:57:52:156,-266372.489,-202918.434,140788.095,123078.272,115428.834,114388.629,115956.648,227153.358
3.872,09-20-2026 21:57:52:160,-270646.187,-248306.87,143538.835,122903.928,117054.253,116012.796,118632.599,219680.544
3.876,09-20-2026 21:57:52:164,-270646.187,-247127.95,141255.202,122492.477,120485.693,115174.516,118192.717,220248.1
3.88,09-20-2026 21:57:52:168,-262098.791,-197613.293,137103.142,122387.871,121072.649,113000.228,115296.825,228004.691
3.884,09-20-2026 21:57:52:172,-254975.96,-174034.884,137310.745,122806.295,117325.156,112790.658,114087.148,231599.209
3.888,09-20-2026 21:57:52:176,-266242.983,-202918.434,140736.194,123071.298,115428.834,114388.629,115919.991,227153.358
3.892,09-20-2026 21:57:52:180,-270646.187,-248306.87,143538.835,122883.007,117054.253,115986.599,118632.599,219680.544
3.896,09-20-2026 21:57:52:184,-270646.187,-247127.95,141203.301,122450.635,120440.542,115122.123,118119.403,220248.1
3.9,09-20-2026 21:57:52:188,-261969.285,-197613.293,137051.241,122346.028,121027.499,112947.835,115223.511,228004.691
3.904,09-20-2026 21:57:52:192,-254867.867,-174270.472,137270.02,122777.238,117255.24,112747.295,113996.132,231581.194
3.908,09-20-2026 21:57:52:196,-266421.35,-202994.117,140753.36,123026.55,115362.673,114342.539,115874.751,227053.625
3.912,09-20-2026 21:57:52:200,-270645.204,-248717.472,143456.849,122841.164,117029.934,115937.783,118563.756,219602
3.916,09-20-2026 21:57:52:204,-270645.204,-247545.078,141221.272,122406.467,120409.518,115100.934,118121.727,220167.946
3.92,09-20-2026 21:57:52:208,-262321.727,-198304.543,137010.069,122310.579,120995.312,112956.508,115211.709,227902.544
3.924,09-20-2026 21:57:52:212,-255116.329,-174270.472,137218.03,122745.275,117300.301,112694.992,113996.132,231581.194
3.928,09-20-2026 21:57:52:216,-266297.119,-202994.117,140701.37,123007.372,115362.673,114316.388,115837.916,227147.949
3.932,09-20-2026 21:57:52:220,-270645.204,-248717.472,143404.859,122809.201,116984.873,115911.632,118526.92,219602
3.936,09-20-2026 21:57:52:224,-270645.204,-246958.881,141117.292,122380.897,120364.457,115048.631,118048.056,220262.271
3.94,09-20-2026 21:57:52:228,-262197.496,-197718.346,136958.079,122285.008,120950.251,112904.204,115174.873,227996.868
3.944,09-20-2026 21:57:52:232,-255116.329,-174270.472,137218.03,122713.312,117210.179,112668.841,113959.296,231581.194
3.948,09-20-2026 21:57:52:236,-266545.581,-203580.314,140701.37,122962.624,115272.551,114290.236,115801.08,227053.625
3.952,09-20-2026 21:57:52:240,-270645.204,-248717.472,143404.859,122770.846,116984.873,115859.329,118490.084,219602
3.956,09-20-2026 21:57:52:244,-270645.204,-247545.078,141117.292,122342.541,120319.396,115022.479,118011.22,220167.946
3.96,09-20-2026 21:57:52:248,-262197.496,-198304.543,136906.089,122253.045,120905.19,112878.053,115101.202,227902.544
3.964,09-20-2026 21:57:52:252,-255240.56,-174270.472,137166.04,122687.742,117210.179,112642.689,113922.461,231581.194
3.968,09-20-2026 21:57:52:256,-266545.581,-203580.314,140649.38,122943.446,115272.551,114237.933,115801.08,227053.625
3.972,09-20-2026 21:57:52:260,-270645.204,-248717.472,143352.868,122738.883,116984.873,115833.177,118490.084,219602
3.976,09-20-2026 21:57:52:264,-270645.204,-247545.078,141065.301,122316.971,120319.396,114970.176,117974.385,220167.946
3.98,09-20-2026 21:57:52:268,-262197.496,-198304.543,136906.089,122227.475,120860.129,112825.75,115064.366,227996.868
3.984,09-20-2026 21:57:52:272,-255116.329,-174270.472,137114.049,122662.171,117120.056,112616.538,113885.625,231581.194
3.988,09-20-2026 21:57:52:276,-266669.812,-203580.314,140597.39,122911.483,115272.551,114211.782,115764.244,227053.625
3.992,09-20-2026 21:57:52:280,-270645.204,-248717.472,143300.878,122706.92,116939.812,115780.874,118416.413,219602
3.996,09-20-2026 21:57:52:284,-270645.204,-247545.078,140961.321,122272.223,120274.335,114917.873,117937.549,220167.946
4,09-20-2026 21:57:52:288,-261949.034,-197718.346,136854.099,122214.69,120815.068,112773.447,115027.531,228091.193
4.004,09-20-2026 21:57:52:292,-255422.727,-174987.918,137136.133,122639.686,117096.006,112586.184,113854.511,231484.5
4.008,09-20-2026 21:57:52:296,-266547.637,-204161.415,140576.335,122873.038,115207.194,114188.178,115721.731,226976.243
4.012,09-20-2026 21:57:52:300,-270659.017,-249088.6,143286.797,122685.06,116916.119,115764.334,118394.419,219556.403
4.016,09-20-2026 21:57:52:304,-270659.017,-247338.19,140993.329,122250.765,120244.026,114911.659,117918.461,220119.935
4.02,09-20-2026 21:57:52:308,-262315.334,-198326.716,136823.387,122153.535,120783.686,112767.054,115026.1,227915.463
4.024,09-20-2026 21:57:52:312,-255422.727,-174987.918,137084.009,122594.312,117096.006,112560.345,113817.899,231484.5
4.028,09-20-2026 21:57:52:316,-266547.637,-204161.415,140524.21,122853.592,115162.222,114162.339,115721.731,226976.243
4.032,09-20-2026 21:57:52:320,-270659.017,-249088.6,143234.672,122652.65,116871.147,115738.495,118394.419,219556.403
4.036,09-20-2026 21:57:52:324,-270659.017,-247338.19,140941.205,122224.837,120244.026,114859.982,117881.849,220213.857
4.04,09-20-2026 21:57:52:328,-262194.411,-197743.246,136771.263,122127.607,120738.714,112715.377,114952.876,228009.385
4.044,09-20-2026 21:57:52:332,-255664.573,-174987.918,137084.009,122568.384,117006.063,112534.507,113781.287,231484.5
4.048,09-20-2026 21:57:52:336,-266910.406,-204161.415,140524.21,122808.218,115117.251,114136.501,115685.119,226976.243
4.052,09-20-2026 21:57:52:340,-270779.94,-249088.6,143182.548,122607.276,116826.176,115686.818,118321.194,219556.403
4.056,09-20-2026 21:57:52:344,-270659.017,-247338.19,140889.08,122179.463,120154.082,114834.143,117845.236,220119.935
4.06,09-20-2026 21:57:52:348,-262557.18,-198326.716,136771.263,122101.679,120693.743,112715.377,114952.876,227915.463
4.064,09-20-2026 21:57:52:352,-256027.342,-174987.918,137031.884,122529.491,117006.063,112508.668,113781.287,231484.5
4.068,09-20-2026 21:57:52:356,-266910.406,-204161.415,140472.086,122775.808,115117.251,114110.662,115648.507,226976.243
4.072,09-20-2026 21:57:52:360,-270779.94,-249088.6,143182.548,122568.384,116826.176,115660.979,118321.194,219556.403
4.076,09-20-2026 21:57:52:364,-270659.017,-247338.19,140836.956,122134.089,120109.11,114782.466,117772.012,220213.857
4.08,09-20-2026 21:57:52:368,-262678.103,-198326.716,136719.139,122075.751,120648.771,112663.7,114916.264,227915.463
4.084,09-20-2026 21:57:52:372,-256269.187,-174987.918,136979.76,122510.045,116961.091,112482.829,113744.675,231484.5
4.088,09-20-2026 21:57:52:376,-267273.175,-204744.885,140472.086,122749.88,115072.279,114084.824,115611.895,226882.321
