PseudoTimeSec,PseudoTimestamp,UF-FP1,UF-FP2,UF-O1,UF-O2,UF-C3,UF-CZ,UF-FZ,UF-C4
0.004,09-22-2026 21:27:41:523,-222644.072,-158656.258,-201660.881,-176079.175,-197557.905,-210979.725,-204703.49,-175153.902
0.008,09-22-2026 21:27:41:527,-222685.334,-158179.54,-163814.415,-175230.524,-160215.695,-174633.554,-166775.083,-180026.538
0.012,09-22-2026 21:27:41:531,-222469.505,-157292.623,-99394.9,-152316.946,-96654.486,-110632.686,-102216.092,-169198.459
0.016,09-22-2026 21:27:41:535,-222301.286,-157303.71,-104226.363,-140152.948,-100627.062,-114583.357,-107058.016,-157107.104
0.02,09-22-2026 21:27:41:539,-222415.548,-158135.195,-166230.147,-154297.132,-161804.725,-175423.688,-169196.045,-160716.463
0.024,09-22-2026 21:27:41:543,-222644.072,-158600.826,-197634.661,-175230.524,-193585.329,-207029.054,-200668.553,-174792.966
0.028,09-22-2026 21:27:41:547,-222669.464,-158124.108,-160593.439,-173533.222,-157037.634,-170682.883,-163547.133,-179124.198
0.032,09-22-2026 21:27:41:551,-222447.288,-157281.537,-100200.143,-151468.295,-97449.001,-111422.82,-103023.079,-168476.587
0.036,09-22-2026 21:27:41:555,-222288.59,-157314.796,-105836.851,-140152.948,-102216.092,-116163.625,-108671.991,-157107.104
0.04,09-22-2026 21:27:41:559,-222406.026,-158135.195,-167035.391,-154862.899,-162599.24,-176213.822,-170003.032,-160896.931
0.044,09-22-2026 21:27:41:563,-222634.551,-158589.74,-197634.661,-175513.408,-193585.329,-207029.054,-200668.553,-174973.434
0.048,09-22-2026 21:27:41:567,-222659.942,-158113.022,-159788.195,-173533.222,-157037.634,-170682.883,-162740.146,-179124.198
0.052,09-22-2026 21:27:41:571,-222444.114,-157270.45,-99394.9,-151468.295,-96654.486,-110632.686,-102216.092,-168296.119
0.056,09-22-2026 21:27:41:575,-222288.59,-157314.796,-105836.851,-140152.948,-103010.607,-116163.625,-108671.991,-157107.104
0.06,09-22-2026 21:27:41:579,-222409.2,-158135.195,-167840.635,-155145.783,-163393.755,-176213.822,-170810.019,-161077.399
0.064,09-22-2026 21:27:41:583,-222640.899,-158578.653,-197634.661,-175513.408,-193585.329,-207029.054,-200668.553,-175153.902
0.068,09-22-2026 21:27:41:587,-222666.29,-158101.935,-159788.195,-173533.222,-156243.119,-170682.883,-162740.146,-179124.198
0.072,09-22-2026 21:27:41:591,-222450.462,-157259.364,-99394.9,-151468.295,-96654.486,-110632.686,-102216.092,-168296.119
0.07600001,09-22-2026 21:27:41:595,-222291.764,-157303.71,-105836.851,-140152.948,-102216.092,-116163.625,-108671.991,-157107.104
0.08000001,09-22-2026 21:27:41:599,-222412.374,-158135.195,-167840.635,-154862.899,-163393.755,-176213.822,-170810.019,-161077.399
0.08400001,09-22-2026 21:27:41:603,-222637.725,-158589.74,-197634.661,-175796.291,-193585.329,-207029.054,-200668.553,-175153.902
0.08800001,09-22-2026 21:27:41:607,-222663.116,-158101.935,-159788.195,-173533.222,-156243.119,-170682.883,-162740.146,-179124.198
0.09200001,09-22-2026 21:27:41:611,-222437.766,-157248.277,-99394.9,-151185.411,-96654.486,-110632.686,-102216.092,-168296.119
0.096,09-22-2026 21:27:41:615,-222282.242,-157292.623,-105836.851,-140152.948,-103010.607,-116163.625,-108671.991,-157107.104
0.1,09-22-2026 21:27:41:619,-222402.852,-158135.195,-168645.879,-155145.783,-164188.27,-177003.956,-170810.019,-161077.399
0.104,09-22-2026 21:27:41:623,-222633.657,-158578.877,-197780.573,-175795.442,-193717.071,-207195.843,-200791.398,-175346.753
0.108,09-22-2026 21:27:41:627,-222658.333,-158096.079,-159458.284,-173547.751,-156676.833,-170342.287,-162392.442,-179173.461
0.112,09-22-2026 21:27:41:631,-222436.246,-157237.772,-98455.456,-151351.798,-95714.774,-109687.476,-101267.573,-168215.161
0.116,09-22-2026 21:27:41:635,-222282.019,-157302.145,-106276.331,-140394.302,-103431.49,-116597.517,-109104.095,-157082.919
0.12,09-22-2026 21:27:41:639,-222408.485,-158138.994,-168843.334,-155566.219,-164393.549,-178020.111,-171796.268,-161257.51
0.124,09-22-2026 21:27:41:643,-222639.826,-158578.877,-197780.573,-176076.403,-193717.071,-207195.843,-200791.398,-175520.694
0.128,09-22-2026 21:27:41:647,-222664.502,-158085.35,-159458.284,-173547.751,-155905.161,-169574.504,-162392.442,-179173.461
0.132,09-22-2026 21:27:41:651,-222439.331,-157227.043,-98455.456,-151070.836,-95714.774,-109687.476,-101267.573,-168215.161
0.136,09-22-2026 21:27:41:655,-222288.188,-157302.145,-107058.419,-140394.302,-103431.49,-117365.3,-109887.747,-157082.919
0.14,09-22-2026 21:27:41:659,-222417.739,-158149.723,-168843.334,-155566.219,-165165.221,-178020.111,-171796.268,-161431.451
0.144,09-22-2026 21:27:41:663,-222645.995,-158578.877,-197780.573,-176076.403,-193717.071,-207195.843,-200791.398,-175520.694
0.148,09-22-2026 21:27:41:667,-222667.587,-158085.35,-158676.196,-173266.789,-155133.489,-169574.504,-161608.79,-179173.461
0.152,09-22-2026 21:27:41:671,-222445.5,-157237.772,-98455.456,-150789.875,-95714.774,-109687.476,-101267.573,-168041.219
0.156,09-22-2026 21:27:41:675,-222297.442,-157312.874,-107058.419,-140394.302,-103431.49,-117365.3,-109887.747,-157082.919
0.16,09-22-2026 21:27:41:679,-222423.908,-158160.452,-169625.422,-155847.181,-165165.221,-178787.894,-172579.92,-161431.451
0.164,09-22-2026 21:27:41:683,-222652.164,-158578.877,-197780.573,-176076.403,-193717.071,-207195.843,-200791.398,-175694.636
0.168,09-22-2026 21:27:41:687,-222670.671,-158085.35,-158676.196,-173266.789,-155133.489,-168806.722,-161608.79,-179173.461
0.172,09-22-2026 21:27:41:691,-222448.584,-157227.043,-98455.456,-150789.875,-95714.774,-109687.476,-101267.573,-168041.219
0.176,09-22-2026 21:27:41:695,-222297.442,-157312.874,-107840.506,-140394.302,-104203.162,-117365.3,-110671.399,-157082.919
0.18,09-22-2026 21:27:41:699,-222426.992,-158160.452,-170407.509,-156128.142,-165936.892,-178787.894,-172579.92,-161605.392
0.184,09-22-2026 21:27:41:703,-222652.164,-158578.877,-197780.573,-176076.403,-193717.071,-207195.843,-200791.398,-175694.636
0.188,09-22-2026 21:27:41:707,-222664.502,-158063.892,-157894.109,-173266.789,-155133.489,-168806.722,-160825.138,-179173.461
0.192,09-22-2026 21:27:41:711,-222439.331,-157216.314,-98455.456,-150789.875,-95714.774,-109687.476,-101267.573,-167867.278
0.196,09-22-2026 21:27:41:715,-222282.019,-157291.416,-107840.506,-140394.302,-104203.162,-118133.082,-110671.399,-157082.919
0.2,09-22-2026 21:27:41:719,-222408.485,-158138.994,-170407.509,-156128.142,-165936.892,-178787.894,-173363.572,-161431.451
0.204,09-22-2026 21:27:41:723,-222635.445,-158546.69,-197023.162,-176025.844,-192961.448,-206488.008,-200031.394,-175574.07
0.208,09-22-2026 21:27:41:727,-222651.985,-158047.799,-157865.141,-172934.776,-154321.987,-168025.126,-160797.377,-178911.23
0.212,09-22-2026 21:27:41:731,-222427.037,-157194.141,-97561.788,-150454.286,-94817.218,-108792.288,-100376.99,-167670.27
0.216,09-22-2026 21:27:41:735,-222281.482,-157282.833,-107742.874,-140338.065,-104090.688,-118023.38,-110577.835,-156780.589
0.22,09-22-2026 21:27:41:739,-222413.805,-158136.491,-170395.708,-156074.408,-166686.614,-179563.991,-173352.262,-161522.87
0.224,09-22-2026 21:27:41:743,-222638.753,-158546.69,-197023.162,-176025.844,-192961.448,-206488.008,-200031.394,-175574.07
0.228,09-22-2026 21:27:41:747,-222651.985,-158025.626,-157081.98,-172934.776,-153549.198,-168025.126,-160012.696,-178911.23
0.232,09-22-2026 21:27:41:751,-222427.037,-157183.055,-97561.788,-150454.286,-94817.218,-108792.288,-100376.99,-167494.63
0.236,09-22-2026 21:27:41:755,-222278.174,-157271.747,-107742.874,-140338.065,-104863.477,-118023.38,-110577.835,-156780.589
0.24,09-22-2026 21:27:41:759,-222413.805,-158136.491,-171178.868,-156355.415,-166686.614,-179563.991,-174136.943,-161522.87
0.244,09-22-2026 21:27:41:763,-222635.445,-158524.517,-197023.162,-176025.844,-192961.448,-206488.008,-200031.394,-175574.07
0.248,09-22-2026 21:27:41:767,-222645.369,-158003.453,-156298.82,-172653.77,-153549.198,-167255.869,-159228.016,-178735.59
0.252,09-22-2026 21:27:41:771,-222417.113,-157160.882,-97561.788,-150173.28,-94817.218,-108792.288,-100376.99,-167318.99
0.256,09-22-2026 21:27:41:775,-222268.25,-157260.66,-107742.874,-140338.065,-104863.477,-118023.38,-110577.835,-156604.949
0.26,09-22-2026 21:27:41:779,-222400.573,-158103.232,-170395.708,-156074.408,-165913.825,-179563.991,-173352.262,-161347.23
0.264,09-22-2026 21:27:41:783,-222618.904,-158491.258,-196240.001,-175463.831,-192188.658,-205718.75,-199246.713,-175222.79
0.268,09-22-2026 21:27:41:787,-222625.521,-157981.28,-155515.66,-172091.758,-152776.409,-166486.611,-158443.336,-178384.31
0.272,09-22-2026 21:27:41:791,-222393.956,-157138.709,-97561.788,-149892.274,-94817.218,-108792.288,-100376.99,-166967.71
0.276,09-22-2026 21:27:41:795,-222251.71,-157238.487,-108526.034,-140338.065,-104863.477,-118792.637,-111362.515,-156604.949
0.28,09-22-2026 21:27:41:799,-222384.032,-158081.059,-170395.708,-156074.408,-165913.825,-179563.991,-173352.262,-161347.23
0.284,09-22-2026 21:27:41:803,-222599.056,-158469.085,-195456.841,-175182.825,-191415.869,-204949.493,-198462.033,-175047.15
0.288,09-22-2026 21:27:41:807,-222602.364,-157959.108,-155515.66,-171810.752,-152003.619,-166486.611,-158443.336,-178208.67
0.292,09-22-2026 21:27:41:811,-222374.108,-157138.709,-98344.949,-149892.274,-95590.007,-109561.546,-101161.671,-166967.71
0.296,09-22-2026 21:27:41:815,-222231.862,-157238.487,-109309.195,-140619.071,-105636.267,-119561.895,-112147.196,-156780.589
0.3,09-22-2026 21:27:41:819,-222364.184,-158069.972,-170395.708,-156355.415,-165913.825,-179563.991,-173352.262,-161522.87
0.304,09-22-2026 21:27:41:823,-222577.911,-158435.602,-194280.558,-175070.664,-190216.743,-203794.578,-197272.205,-174982.554
0.308,09-22-2026 21:27:41:827,-222577.911,-157925.043,-155199.695,-171842.357,-151661.235,-166140.114,-158116.956,-177967.853
0.312,09-22-2026 21:27:41:831,-222352.606,-157121.185,-98833.066,-150051.284,-96052.33,-110027.58,-101643.038,-167021.756
0.316,09-22-2026 21:27:41:835,-222214.204,-157218.952,-110106.392,-140904.414,-106432.659,-119625.776,-112937.822,-156904.91
0.32,09-22-2026 21:27:41:839,-222346.168,-158044.536,-170230.796,-156238.873,-165748.825,-179429.925,-173176.667,-161548.708
0.324,09-22-2026 21:27:41:843,-222555.381,-158413.876,-194280.558,-175070.664,-190216.743,-203794.578,-197272.205,-174982.554
0.328,09-22-2026 21:27:41:847,-222558.599,-157903.318,-155199.695,-171573.332,-151661.235,-165401.791,-158116.956,-177967.853
0.332,09-22-2026 21:27:41:851,-222333.294,-157099.459,-98833.066,-150051.284,-96052.33,-110027.58,-101643.038,-167021.756
0.336,09-22-2026 21:27:41:855,-222198.11,-157208.089,-110106.392,-140904.414,-107174.111,-120364.099,-112937.822,-156904.91
0.34,09-22-2026 21:27:41:859,-222333.294,-158033.673,-170230.796,-156507.898,-166490.277,-179429.925,-173176.667,-161714.558
0.344,09-22-2026 21:27:41:863,-222545.725,-158392.15,-193529.003,-175070.664,-189475.291,-203794.578,-196519.219,-174982.554
0.348,09-22-2026 21:27:41:867,-222545.725,-157892.455,-154448.14,-171573.332,-151661.235,-165401.791,-157363.97,-177967.853
0.352,09-22-2026 21:27:41:871,-222317.201,-157088.596,-98833.066,-150051.284,-96052.33,-110027.58,-101643.038,-166855.906
0.356,09-22-2026 21:27:41:875,-222185.236,-157197.226,-110857.947,-141173.439,-107174.111,-121102.422,-113690.807,-157070.76
0.36,09-22-2026 21:27:41:879,-222320.419,-158022.81,-170982.351,-156776.924,-166490.277,-179429.925,-173929.652,-161880.408
0.364,09-22-2026 21:27:41:883,-222532.85,-158381.287,-193529.003,-175070.664,-189475.291,-203056.255,-196519.219,-174982.554
0.368,09-22-2026 21:27:41:887,-222532.85,-157859.866,-154448.14,-171304.306,-150919.783,-164663.469,-157363.97,-177802.003
0.372,09-22-2026 21:27:41:891,-222307.545,-157066.871,-98833.066,-149782.258,-96052.33,-110027.58,-101643.038,-166855.906
0.376,09-22-2026 21:27:41:895,-222175.58,-157186.363,-110857.947,-141173.439,-107174.111,-121102.422,-113690.807,-156904.91
0.38,09-22-2026 21:27:41:899,-222317.201,-158011.947,-170982.351,-156776.924,-166490.277,-180168.248,-173929.652,-161714.558
0.384,09-22-2026 21:27:41:903,-222526.413,-158359.561,-193529.003,-175070.664,-189475.291,-203056.255,-196519.219,-174982.554
0.388,09-22-2026 21:27:41:907,-222526.413,-157849.003,-153696.585,-171304.306,-150919.783,-164663.469,-156610.984,-177802.003
0.392,09-22-2026 21:27:41:911,-222297.889,-157056.008,-98833.066,-149513.233,-96052.33,-110027.58,-101643.038,-166690.057
0.396,09-22-2026 21:27:41:915,-222169.143,-157175.5,-110857.947,-141173.439,-107915.563,-121102.422,-113690.807,-156904.91
0.4,09-22-2026 21:27:41:919,-222310.763,-158001.084,-170982.351,-156776.924,-166490.277,-180168.248,-173929.652,-161880.408
0.404,09-22-2026 21:27:41:923,-222521.496,-158345.301,-193278.887,-175044.557,-189222.671,-202855.581,-196267.852,-175019.971
0.408,09-22-2026 21:27:41:927,-222521.496,-157836.843,-153979.514,-171235.641,-150441.679,-164218.714,-156894.092,-177672.854
0.412,09-22-2026 21:27:41:931,-222296.19,-157047.112,-98809.239,-149470.407,-95999.133,-109978.495,-101619.39,-166563.903
0.416,09-22-2026 21:27:41:935,-222167.444,-157176.931,-111657.111,-141308.444,-107931.746,-121866.762,-114491.581,-156947.199
0.42,09-22-2026 21:27:41:939,-222306.919,-157999.117,-171361.929,-157088.239,-166849.022,-180565.081,-174309.409,-161921.357
0.424,09-22-2026 21:27:41:943,-222517.919,-158345.301,-193278.887,-175044.557,-189222.671,-202855.581,-196267.852,-175185.776
0.428,09-22-2026 21:27:41:947,-222510.767,-157836.843,-153223.756,-170963.576,-150441.679,-164218.714,-156136.904,-177838.66
0.432,09-22-2026 21:27:41:951,-222281.885,-157036.293,-98053.482,-149470.407,-95253.345,-109235.479,-100862.202,-166563.903
0.436,09-22-2026 21:27:41:955,-222149.562,-157176.931,-111657.111,-141308.444,-107931.746,-121866.762,-114491.581,-156947.199
0.44,09-22-2026 21:27:41:959,-222292.614,-158009.935,-172117.686,-157088.239,-167594.81,-181308.097,-175066.596,-162087.162
0.444,09-22-2026 21:27:41:963,-222500.038,-158345.301,-193278.887,-175316.623,-189222.671,-202855.581,-196267.852,-175185.776
0.448,09-22-2026 21:27:41:967,-222489.309,-157826.025,-153223.756,-170963.576,-149695.891,-164218.714,-156136.904,-177838.66
0.452,09-22-2026 21:27:41:971,-222253.275,-157025.475,-98053.482,-149198.341,-95253.345,-109235.479,-100862.202,-166563.903
0.456,09-22-2026 21:27:41:975,-222120.952,-157166.112,-111657.111,-141036.378,-107931.746,-121866.762,-114491.581,-156947.199
0.46,09-22-2026 21:27:41:979,-222267.58,-157999.117,-172873.443,-157360.304,-168340.599,-181308.097,-175823.784,-162087.162
0.464,09-22-2026 21:27:41:983,-222478.58,-158334.483,-193278.887,-175316.623,-189222.671,-202855.581,-196267.852,-175351.581
0.468,09-22-2026 21:27:41:987,-222467.851,-157804.389,-153223.756,-170963.576,-149695.891,-163475.697,-156136.904,-177838.66
0.472,09-22-2026 21:27:41:991,-222228.241,-156993.02,-97297.725,-149198.341,-94507.556,-108492.462,-100105.014,-166563.903
0.476,09-22-2026 21:27:41:995,-222095.918,-157133.658,-111657.111,-140764.313,-107931.746,-121123.746,-114491.581,-156781.394
0.48,09-22-2026 21:27:41:999,-222246.122,-157988.299,-172873.443,-157360.304,-168340.599,-182051.114,-175823.784,-162087.162
0.484,09-22-2026 21:27:42:003,-222453.546,-158312.846,-193278.887,-175316.623,-189222.671,-202855.581,-196267.852,-175517.386
0.488,09-22-2026 21:27:42:007,-222442.817,-157771.934,-152467.999,-170963.576,-149695.891,-163475.697,-155379.716,-177838.66
0.492,09-22-2026 21:27:42:011,-222199.63,-156971.384,-97297.725,-148654.21,-94507.556,-108492.462,-100105.014,-166398.098
0.496,09-22-2026 21:27:42:015,-222070.884,-157122.839,-111657.111,-140764.313,-107931.746,-121123.746,-114491.581,-156781.394
0.5,09-22-2026 21:27:42:019,-222217.512,-157966.662,-172873.443,-157088.239,-168340.599,-182051.114,-175823.784,-162087.162
0.504,09-22-2026 21:27:42:023,-222427.35,-158295.01,-193900.176,-175460.434,-189860.679,-203504.855,-196885.341,-175463.429
0.508,09-22-2026 21:27:42:027,-222416.621,-157758.568,-152022.305,-170721.328,-149281.937,-163068.269,-154927.809,-177844.784
0.512,09-22-2026 21:27:42:031,-222173.434,-156953.905,-96185.144,-148419.651,-93390.461,-107372.595,-98984.432,-166278.203
0.516,09-22-2026 21:27:42:035,-222037.536,-157099.191,-110919.951,-140335.293,-107171.921,-121105.775,-113747.268,-156412.59
0.52,09-22-2026 21:27:42:039,-222187.739,-157959.733,-173736.757,-157061.551,-169188.49,-182142.13,-176683.566,-162025.784
0.524,09-22-2026 21:27:42:043,-222402.316,-158283.834,-193900.176,-175460.434,-189860.679,-203504.855,-196885.341,-175463.429
0.528,09-22-2026 21:27:42:047,-222388.011,-157736.216,-152022.305,-170721.328,-149281.937,-163068.269,-154927.809,-177844.784
0.532,09-22-2026 21:27:42:051,-222144.824,-156931.553,-96185.144,-148419.651,-93390.461,-107372.595,-98984.432,-166278.203
0.536,09-22-2026 21:27:42:055,-222012.502,-157088.015,-111695.467,-140335.293,-107937.557,-121868.729,-114524.259,-156412.59
0.54,09-22-2026 21:27:42:059,-222166.282,-157948.557,-173736.757,-157340.322,-169954.126,-182905.085,-176683.566,-162195.881
0.544,09-22-2026 21:27:42:063,-222380.858,-158272.658,-193900.176,-175739.205,-189860.679,-203504.855,-196885.341,-175633.526
0.548,09-22-2026 21:27:42:067,-222366.553,-157725.04,-152022.305,-170721.328,-148516.3,-162305.315,-154927.809,-177844.784
0.552,09-22-2026 21:27:42:071,-222123.366,-156920.377,-96185.144,-148419.651,-93390.461,-107372.595,-98984.432,-166108.107
0.5560001,09-22-2026 21:27:42:075,-221994.62,-157076.839,-111695.467,-140335.293,-107937.557,-121868.729,-114524.259,-156412.59
0.56,09-22-2026 21:27:42:079,-222151.976,-157948.557,-174512.273,-157619.093,-170719.763,-183668.039,-177460.558,-162195.881
0.564,09-22-2026 21:27:42:083,-222370.13,-158261.482,-193900.176,-175739.205,-189860.679,-203504.855,-196885.341,-175803.623
0.568,09-22-2026 21:27:42:087,-222352.248,-157702.688,-151246.789,-170721.328,-148516.3,-162305.315,-154150.817,-177844.784
0.572,09-22-2026 21:27:42:091,-222109.061,-156898.026,-95409.628,-148140.88,-92624.824,-106609.64,-98207.441,-166108.107
0.576,09-22-2026 21:27:42:095,-221983.891,-157054.488,-111695.467,-140335.293,-107937.557,-121105.775,-114524.259,-156242.494
0.58,09-22-2026 21:27:42:099,-222141.248,-157926.206,-174512.273,-157619.093,-169954.126,-183668.039,-177460.558,-162025.784
0.5840001,09-22-2026 21:27:42:103,-222359.401,-158250.306,-193900.176,-175739.205,-189860.679,-203504.855,-196885.341,-175633.526
0.588,09-22-2026 21:27:42:107,-222345.096,-157691.512,-151246.789,-170721.328,-148516.3,-162305.315,-154150.817,-177844.784
0.592,09-22-2026 21:27:42:111,-222101.909,-156875.674,-95409.628,-148140.88,-92624.824,-106609.64,-98207.441,-165938.01
0.596,09-22-2026 21:27:42:115,-221973.163,-157043.312,-111695.467,-140335.293,-107937.557,-121105.775,-114524.259,-156242.494
0.6,09-22-2026 21:27:42:119,-222134.095,-157926.206,-175287.789,-157619.093,-170719.763,-184430.994,-178237.549,-162195.881
0.604,09-22-2026 21:27:42:123,-222350.102,-158228.133,-194187.62,-176135.501,-190172.71,-203828.24,-197174.662,-175854.048
0.608,09-22-2026 21:27:42:127,-222337.407,-157669.339,-151008.073,-170736.929,-147529.158,-162097.622,-153913.978,-177915.058
0.612,09-22-2026 21:27:42:131,-222096.187,-156853.501,-94482.12,-148006.099,-91704.871,-105684.01,-97281.81,-165892.502
0.6160001,09-22-2026 21:27:42:135,-221966.055,-157021.139,-111753.939,-140334.444,-107986.955,-121139.794,-114586.084,-156102.706
0.62,09-22-2026 21:27:42:139,-222127.926,-157904.033,-175345.635,-157950.837,-170789.277,-184508.51,-178297.273,-162113.984
0.624,09-22-2026 21:27:42:143,-222340.581,-158205.781,-194187.62,-176135.501,-190172.71,-203828.24,-197174.662,-175854.048
0.628,09-22-2026 21:27:42:147,-222327.885,-157635.812,-151008.073,-170736.929,-147529.158,-161324.833,-153913.978,-177915.058
0.632,09-22-2026 21:27:42:151,-222083.491,-156831.149,-94482.12,-147721.964,-91704.871,-105684.01,-97281.81,-165720.751
0.636,09-22-2026 21:27:42:155,-221956.533,-157009.963,-111753.939,-140334.444,-107986.955,-121912.583,-114586.084,-156102.706
0.64,09-22-2026 21:27:42:159,-222118.404,-157892.857,-176130.718,-157950.837,-171564.614,-184508.51,-178297.273,-162285.735
0.6440001,09-22-2026 21:27:42:163,-222337.407,-158194.605,-194187.62,-176135.501,-190172.71,-203828.24,-197174.662,-175854.048
0.648,09-22-2026 21:27:42:167,-222321.537,-157624.636,-150222.99,-170736.929,-147529.158,-161324.833,-153127.42,-177915.058
0.652,09-22-2026 21:27:42:171,-222077.143,-156819.973,-94482.12,-147721.964,-91704.871,-105684.01,-97281.81,-165720.751
0.656,09-22-2026 21:27:42:175,-221950.185,-156998.787,-111753.939,-140334.444,-107986.955,-121912.583,-114586.084,-156102.706
0.66,09-22-2026 21:27:42:179,-222118.404,-157892.857,-176130.718,-158234.973,-172339.952,-185281.299,-179083.831,-162285.735
0.664,09-22-2026 21:27:42:183,-222337.407,-158194.605,-194187.62,-176419.637,-190172.71,-203828.24,-197174.662,-176025.799
0.668,09-22-2026 21:27:42:187,-222321.537,-157613.46,-150222.99,-170736.929,-146753.82,-161324.833,-153127.42,-177915.058
0.6720001,09-22-2026 21:27:42:191,-222077.143,-156808.797,-94482.12,-147721.964,-91704.871,-105684.01,-97281.81,-165549
0.6760001,09-22-2026 21:27:42:195,-221956.533,-157009.963,-112539.022,-140334.444,-108762.292,-122685.373,-115372.642,-156102.706
0.68,09-22-2026 21:27:42:199,-222124.752,-157904.033,-176915.801,-158519.108,-172339.952,-186054.088,-179870.388,-162457.485
0.684,09-22-2026 21:27:42:203,-222343.754,-158194.605,-194187.62,-176419.637,-190172.71,-203828.24,-197174.662,-176197.55
0.688,09-22-2026 21:27:42:207,-222324.711,-157613.46,-150222.99,-170736.929,-146753.82,-160552.044,-153127.42,-177915.058
0.692,09-22-2026 21:27:42:211,-222080.317,-156808.797,-94482.12,-147721.964,-91704.871,-105684.01,-97281.81,-165549
0.696,09-22-2026 21:27:42:215,-221959.707,-157009.963,-112539.022,-140334.444,-108762.292,-122685.373,-115372.642,-156102.706
0.7,09-22-2026 21:27:42:219,-222127.926,-157915.209,-176915.801,-158519.108,-173115.289,-186054.088,-179870.388,-162457.485
0.7040001,09-22-2026 21:27:42:223,-222339.999,-158192.013,-194008.984,-176504.931,-189988.353,-203648.264,-196989.455,-176141.536
0.708,09-22-2026 21:27:42:227,-222323.236,-157611.538,-150016.817,-170554.986,-146541.926,-160344.53,-152914.676,-177855.021
0.712,09-22-2026 21:27:42:231,-222071.778,-156812.016,-94241.034,-147605.198,-91458.063,-105441.583,-97034.153,-165517.931
0.716,09-22-2026 21:27:42:235,-221951.079,-157009.158,-112309.246,-140521.931,-109302.131,-122453.764,-115136.294,-156093.765
0.72,09-22-2026 21:27:42:239,-222115.364,-157907.251,-177511.922,-158655.096,-172920.114,-186636.083,-180461.413,-162605.007
0.724,09-22-2026 21:27:42:243,-222329.941,-158192.013,-194008.984,-176504.931,-189988.353,-203648.264,-196989.455,-176312.885
0.728,09-22-2026 21:27:42:247,-222309.825,-157600.586,-149231.243,-170554.986,-146541.926,-160344.53,-152127.627,-177855.021
0.7320001,09-22-2026 21:27:42:251,-222061.72,-156801.064,-94241.034,-147321.868,-91458.063,-105441.583,-97034.153,-165346.583
0.7360001,09-22-2026 21:27:42:255,-221941.021,-157009.158,-113094.82,-140521.931,-109302.131,-123227.045,-115923.344,-156093.765
0.74,09-22-2026 21:27:42:259,-222108.659,-157907.251,-178297.496,-158938.427,-173695.943,-186636.083,-180461.413,-162605.007
0.744,09-22-2026 21:27:42:263,-222323.236,-158181.06,-194008.984,-176504.931,-189988.353,-203648.264,-196989.455,-176312.885
0.748,09-22-2026 21:27:42:267,-222299.766,-157589.633,-149231.243,-170554.986,-145766.097,-159571.249,-152127.627,-177855.021
0.752,09-22-2026 21:27:42:271,-222051.662,-156801.064,-94241.034,-147321.868,-91458.063,-105441.583,-97034.153,-165346.583
0.756,09-22-2026 21:27:42:275,-221930.962,-157009.158,-113094.82,-140521.931,-109302.131,-123227.045,-115923.344,-156093.765
0.7600001,09-22-2026 21:27:42:279,-222098.601,-157907.251,-177511.922,-158938.427,-173695.943,-186636.083,-180461.413,-162776.355
0.7640001,09-22-2026 21:27:42:283,-222309.825,-158170.108,-194008.984,-176504.931,-189988.353,-203648.264,-196989.455,-176312.885
0.768,09-22-2026 21:27:42:287,-222289.708,-157589.633,-148445.669,-170271.655,-145766.097,-159571.249,-152127.627,-177855.021
0.772,09-22-2026 21:27:42:291,-222041.604,-156801.064,-94241.034,-147321.868,-91458.063,-105441.583,-97034.153,-165346.583
0.776,09-22-2026 21:27:42:295,-221927.61,-157020.111,-113880.395,-140805.261,-110077.961,-124000.326,-116710.394,-156265.114
0.78,09-22-2026 21:27:42:299,-222091.895,-157896.299,-177511.922,-158938.427,-172920.114,-185862.802,-180461.413,-162776.355
0.784,09-22-2026 21:27:42:303,-222299.766,-158159.156,-192437.836,-175938.27,-188436.695,-202101.702,-195415.356,-175970.188
0.788,09-22-2026 21:27:42:307,-222269.591,-157578.681,-148445.669,-169988.325,-144990.268,-159571.249,-151340.577,-177512.324
0.7920001,09-22-2026 21:27:42:311,-222024.84,-156812.016,-95812.183,-147605.198,-93009.721,-106988.145,-98608.252,-165346.583
0.7960001,09-22-2026 21:27:42:315,-221914.199,-157031.063,-114665.969,-141371.923,-111629.619,-124773.607,-117497.443,-156607.81
0.8,09-22-2026 21:27:42:319,-222085.189,-157896.299,-176726.347,-158938.427,-172920.114,-185862.802,-179674.364,-162947.704
0.804,09-22-2026 21:27:42:323,-222285.372,-158139.888,-191302.814,-175641.617,-187295.28,-200997.034,-194269.785,-175993.076
0.808,09-22-2026 21:27:42:327,-222258.907,-157579.664,-148494.753,-169700.434,-145014.676,-158838.738,-151382.733,-177306.286
0.812,09-22-2026 21:27:42:331,-222017.419,-156814.743,-95923.45,-147556.024,-93091.126,-107065.392,-98714.423,-165323.247
0.816,09-22-2026 21:27:42:335,-221904.945,-157030.214,-115449.934,-141344.788,-111635.251,-125555.873,-118276.938,-156623.233
0.8200001,09-22-2026 21:27:42:339,-222076.964,-157892.097,-177033.46,-159168.337,-172459.981,-186204.649,-179974.101,-163025.13
0.8240001,09-22-2026 21:27:42:343,-222278.756,-158139.888,-191302.814,-175641.617,-187295.28,-200997.034,-194269.785,-175993.076
0.8280001,09-22-2026 21:27:42:347,-222248.983,-157568.891,-147743.734,-169700.434,-145014.676,-158838.738,-150630.328,-177306.286
0.832,09-22-2026 21:27:42:351,-222010.803,-156814.743,-95923.45,-147556.024,-93091.126,-107065.392,-98714.423,-165323.247
0.836,09-22-2026 21:27:42:355,-221898.329,-157030.214,-115449.934,-141344.788,-111635.251,-125555.873,-118276.938,-156623.233
0.84,09-22-2026 21:27:42:359,-222070.348,-157892.097,-177033.46,-159168.337,-172459.981,-186204.649,-179974.101,-163025.13
0.844,09-22-2026 21:27:42:363,-222272.139,-158139.888,-191302.814,-175641.617,-187295.28,-200997.034,-194269.785,-175993.076
0.848,09-22-2026 21:27:42:367,-222242.367,-157568.891,-147743.734,-169430.38,-144272.911,-158838.738,-150630.328,-177306.286
0.8520001,09-22-2026 21:27:42:371,-222000.879,-156814.743,-95923.45,-147556.024,-93091.126,-107065.392,-98714.423,-165323.247
0.8560001,09-22-2026 21:27:42:375,-221888.405,-157019.44,-115449.934,-141344.788,-111635.251,-124816.254,-118276.938,-156459.082
0.86,09-22-2026 21:27:42:379,-222053.808,-157870.55,-176282.442,-158898.283,-171718.216,-185465.03,-179221.696,-162860.979
0.864,09-22-2026 21:27:42:383,-222258.907,-158118.341,-191302.814,-175641.617,-187295.28,-200997.034,-194269.785,-175828.925
0.868,09-22-2026 21:27:42:387,-222229.135,-157547.344,-147743.734,-169430.38,-144272.911,-158838.738,-150630.328,-177306.286
0.872,09-22-2026 21:27:42:391,-221987.646,-156793.196,-95923.45,-147556.024,-93091.126,-107065.392,-98714.423,-165159.096
0.876,09-22-2026 21:27:42:395,-221875.172,-156997.893,-114698.915,-141344.788,-111635.251,-124816.254,-117524.534,-156459.082
0.8800001,09-22-2026 21:27:42:399,-222043.883,-157849.003,-177033.46,-158898.283,-172459.981,-185465.03,-179974.101,-162860.979
0.8840001,09-22-2026 21:27:42:403,-222245.675,-158107.568,-191302.814,-175641.617,-187295.28,-200997.034,-194269.785,-175993.076
0.8880001,09-22-2026 21:27:42:407,-222215.902,-157525.797,-147743.734,-169430.38,-144272.911,-158099.119,-150630.328,-177306.286
0.892,09-22-2026 21:27:42:411,-221974.414,-156771.649,-95923.45,-147285.971,-93091.126,-107065.392,-98714.423,-165159.096
0.896,09-22-2026 21:27:42:415,-221868.556,-156987.12,-115449.934,-141344.788,-111635.251,-124816.254,-117524.534,-156459.082
0.9,09-22-2026 21:27:42:419,-222037.267,-157849.003,-177784.479,-159168.337,-173201.746,-186204.649,-180726.505,-163025.13
0.904,09-22-2026 21:27:42:423,-222238.165,-158089.91,-191719.942,-176045.066,-187703.289,-201424.265,-194682.13,-176103.583
0.9080001,09-22-2026 21:27:42:427,-222211.7,-157507.066,-147972.437,-169690.823,-144501.614,-158343.066,-150855.947,-177521.578
0.9120001,09-22-2026 21:27:42:431,-221970.212,-156748.269,-95475.432,-147162.142,-92659.604,-106645.627,-98264.527,-165114.124
0.9160001,09-22-2026 21:27:42:435,-221861.046,-156968.21,-114565.252,-141096.728,-110725.759,-124661.401,-117388.68,-156251.658
0.92,09-22-2026 21:27:42:439,-222029.757,-157836.978,-177402.577,-159004.141,-172779.074,-186541.669,-180339.015,-162809.883
0.924,09-22-2026 21:27:42:443,-222231.549,-158089.91,-192515.351,-176045.066,-188488.774,-202207.56,-195478.969,-176103.583
0.928,09-22-2026 21:27:42:447,-222201.776,-157507.066,-147972.437,-169690.823,-144501.614,-158343.066,-150855.947,-177521.578
0.932,09-22-2026 21:27:42:451,-221960.288,-156737.272,-94680.023,-147162.142,-91874.119,-105862.332,-97467.687,-165114.124
0.936,09-22-2026 21:27:42:455,-221851.122,-156957.213,-114565.252,-141096.728,-110725.759,-124661.401,-117388.68,-156251.658
0.9400001,09-22-2026 21:27:42:459,-222019.833,-157836.978,-177402.577,-159292.97,-173564.559,-186541.669,-180339.015,-162987.132
0.9440001,09-22-2026 21:27:42:463,-222221.625,-158078.913,-192515.351,-176045.066,-188488.774,-202207.56,-195478.969,-176280.832
0.9480001,09-22-2026 21:27:42:467,-222195.16,-157496.069,-147972.437,-169690.823,-144501.614,-158343.066,-150855.947,-177521.578
0.952,09-22-2026 21:27:42:471,-221953.672,-156726.275,-94680.023,-147162.142,-91874.119,-105862.332,-97467.687,-164936.875
0.956,09-22-2026 21:27:42:475,-221841.198,-156946.216,-113769.843,-140807.899,-110725.759,-123878.106,-116591.84,-155897.159
0.96,09-22-2026 21:27:42:479,-222009.909,-157825.981,-177402.577,-159004.141,-172779.074,-186541.669,-180339.015,-162632.634
0.964,09-22-2026 21:27:42:483,-222215.008,-158089.91,-193310.761,-176333.895,-189274.259,-202990.854,-196275.809,-176280.832
0.9680001,09-22-2026 21:27:42:487,-222191.852,-157496.069,-147972.437,-169979.652,-144501.614,-158343.066,-150855.947,-177698.827
0.9720001,09-22-2026 21:27:42:491,-221953.672,-156726.275,-93884.613,-146873.313,-91088.634,-105079.038,-96670.848,-164936.875
0.9760001,09-22-2026 21:27:42:495,-221837.89,-156946.216,-112974.434,-140519.069,-109940.274,-123094.812,-115795,-155719.91
0.98,09-22-2026 21:27:42:499,-222006.601,-157836.978,-178197.986,-159004.141,-173564.559,-187324.963,-181135.855,-162632.634
0.984,09-22-2026 21:27:42:503,-222208.392,-158100.907,-194106.17,-176622.725,-190059.744,-203774.149,-197072.649,-176458.082
0.988,09-22-2026 21:27:42:507,-222185.236,-157507.066,-148767.847,-170557.311,-145287.099,-159909.655,-151652.786,-178053.326
0.992,09-22-2026 21:27:42:511,-221937.132,-156704.281,-93089.204,-146873.313,-90303.149,-104295.743,-95874.008,-165114.124
0.9960001,09-22-2026 21:27:42:515,-221818.041,-156913.225,-112179.024,-139941.411,-108369.304,-121528.223,-114201.321,-155542.66
1,09-22-2026 21:27:42:519,-221983.444,-157836.978,-178993.395,-158715.312,-174350.044,-188108.258,-181932.695,-162455.384
1.004,09-22-2026 21:27:42:523,-222188.007,-158112.843,-196466.335,-177391.759,-192399.793,-206128.86,-199437.955,-176896.087
1.008,09-22-2026 21:27:42:527,-222166.013,-157496.829,-148944.381,-170955.529,-145463.633,-160146.405,-151825.878,-178595.534
1.012,09-22-2026 21:27:42:531,-221916.747,-156667.579,-91239.15,-146743.047,-88469.724,-102459.324,-94011.214,-164999.952
1.016,09-22-2026 21:27:42:535,-221792.113,-156892.661,-110757.096,-139080.869,-106908.93,-120852.306,-113566.174,-154992.092
1.02,09-22-2026 21:27:42:539,-221957.069,-157840.375,-179494.209,-158696.045,-174798.733,-188571.923,-182433.642,-162356.366
1.024,09-22-2026 21:27:42:543,-222166.013,-158112.843,-197314.942,-177698.246,-193237.939,-206964.905,-200288.171,-177084.914
1.028,09-22-2026 21:27:42:547,-222144.019,-157484.982,-148944.381,-171262.016,-145463.633,-159310.36,-151825.878,-178595.534
1.032,09-22-2026 21:27:42:551,-221894.753,-156643.886,-90390.544,-146436.56,-87631.579,-101623.279,-93160.998,-164811.124
1.036,09-22-2026 21:27:42:555,-221770.119,-156880.815,-110757.096,-139080.869,-106908.93,-120852.306,-113566.174,-154992.092
1.04,09-22-2026 21:27:42:559,-221935.075,-157828.529,-179494.209,-158696.045,-175636.879,-188571.923,-182433.642,-162356.366
1.044,09-22-2026 21:27:42:563,-222147.685,-158100.996,-197314.942,-177698.246,-193237.939,-206964.905,-200288.171,-177084.914
1.048,09-22-2026 21:27:42:567,-222125.691,-157461.289,-148944.381,-170955.529,-145463.633,-159310.36,-151825.878,-178595.534
1.052,09-22-2026 21:27:42:571,-221876.424,-156632.04,-89541.938,-146130.073,-86793.433,-100787.234,-92310.782,-164811.124
1.056,09-22-2026 21:27:42:575,-221755.457,-156868.968,-109908.49,-138774.382,-106908.93,-120016.261,-112715.958,-154803.265
1.06,09-22-2026 21:27:42:579,-221920.412,-157816.682,-180342.815,-158696.045,-175636.879,-189407.967,-183283.857,-162167.539
1.064,09-22-2026 21:27:42:583,-222133.022,-158100.996,-197314.942,-177698.246,-193237.939,-206964.905,-200288.171,-177084.914
1.068,09-22-2026 21:27:42:587,-222114.694,-157449.443,-148095.774,-171262.016,-145463.633,-159310.36,-150975.663,-178595.534
1.072,09-22-2026 21:27:42:591,-221861.761,-156620.193,-89541.938,-146130.073,-86793.433,-100787.234,-92310.782,-164622.297
1.076,09-22-2026 21:27:42:595,-221737.128,-156857.122,-109908.49,-138774.382,-106908.93,-120016.261,-112715.958,-154614.437
1.08,09-22-2026 21:27:42:599,-221905.75,-157816.682,-180342.815,-158696.045,-175636.879,-189407.967,-183283.857,-162167.539
1.084,09-22-2026 21:27:42:603,-222114.694,-158089.15,-197314.942,-177698.246,-193237.939,-206964.905,-200288.171,-177084.914
1.088,09-22-2026 21:27:42:607,-222096.365,-157449.443,-148095.774,-170955.529,-145463.633,-159310.36,-150975.663,-178595.534
1.092,09-22-2026 21:27:42:611,-221843.433,-156608.347,-89541.938,-145823.585,-86793.433,-100787.234,-92310.782,-164433.469
1.096,09-22-2026 21:27:42:615,-221722.465,-156857.122,-109908.49,-138774.382,-106908.93,-120016.261,-112715.958,-154614.437
1.1,09-22-2026 21:27:42:619,-221887.421,-157816.682,-181191.421,-159002.532,-176475.024,-189407.967,-184134.073,-162167.539
1.104,09-22-2026 21:27:42:623,-222097.841,-158089.195,-197443.196,-177861.95,-193364.226,-207097.048,-200413.027,-177173.338
1.108,09-22-2026 21:27:42:627,-222076.383,-157428.298,-147542.122,-171021.869,-144069.868,-158767.257,-150418.612,-178510.777
1.112,09-22-2026 21:27:42:631,-221822.467,-156602.178,-89037.414,-145527.023,-86276.482,-100262.773,-91804.471,-164372.136
1.116,09-22-2026 21:27:42:635,-221697.297,-156850.014,-110546.498,-138686.942,-106674.147,-120612.159,-113353.787,-154436.875
1.12,09-22-2026 21:27:42:639,-221865.382,-157829.557,-181956.656,-159207.184,-177216.074,-190987.118,-184897.519,-162461.509
1.124,09-22-2026 21:27:42:643,-222079.959,-158077.393,-197443.196,-178172.863,-193364.226,-207097.048,-200413.027,-177364.4
1.128,09-22-2026 21:27:42:647,-222058.501,-157428.298,-147542.122,-171021.869,-144069.868,-158767.257,-150418.612,-178510.777
1.132,09-22-2026 21:27:42:651,-221808.162,-156590.376,-88177.051,-145527.023,-85426.579,-99414.882,-90942.498,-164181.073
1.136,09-22-2026 21:27:42:655,-221690.145,-156850.014,-110546.498,-138686.942,-107524.05,-120612.159,-113353.787,-154436.875
1.14,09-22-2026 21:27:42:659,-221858.23,-157829.557,-182817.019,-159518.097,-178065.977,-190987.118,-185759.492,-162461.509
1.144,09-22-2026 21:27:42:663,-222072.807,-158077.393,-197443.196,-178172.863,-193364.226,-207097.048,-200413.027,-177555.463
1.148,09-22-2026 21:27:42:667,-222051.349,-157416.497,-146681.758,-171021.869,-144069.868,-157919.366,-149556.64,-178510.777
1.152,09-22-2026 21:27:42:671,-221801.009,-156590.376,-88177.051,-145527.023,-85426.579,-99414.882,-90942.498,-164181.073
1.156,09-22-2026 21:27:42:675,-221679.416,-156850.014,-110546.498,-138686.942,-106674.147,-120612.159,-113353.787,-154245.812
1.16,09-22-2026 21:27:42:679,-221847.501,-157829.557,-181956.656,-159207.184,-177216.074,-190987.118,-184897.519,-162461.509
1.164,09-22-2026 21:27:42:683,-222058.501,-158089.195,-197443.196,-178172.863,-193364.226,-207097.048,-200413.027,-177364.4
1.168,09-22-2026 21:27:42:687,-222037.044,-157416.497,-146681.758,-170710.957,-143219.965,-157919.366,-149556.64,-178510.777
1.172,09-22-2026 21:27:42:691,-221786.704,-156590.376,-88177.051,-145216.11,-85426.579,-99414.882,-90942.498,-163990.01
1.176,09-22-2026 21:27:42:695,-221665.111,-156873.617,-111406.861,-138686.942,-107524.05,-121460.05,-114215.76,-154245.812
1.18,09-22-2026 21:27:42:699,-221836.772,-157853.16,-182817.019,-159518.097,-178065.977,-191835.009,-185759.492,-162461.509
1.184,09-22-2026 21:27:42:703,-222047.773,-158089.195,-197443.196,-178172.863,-193364.226,-207097.048,-200413.027,-177555.463
1.188,09-22-2026 21:27:42:707,-222022.739,-157416.497,-145821.395,-170710.957,-143219.965,-157071.475,-149556.64,-178510.777
1.192,09-22-2026 21:27:42:711,-221772.399,-156602.178,-88177.051,-145216.11,-85426.579,-99414.882,-90942.498,-163990.01
1.196,09-22-2026 21:27:42:715,-221647.229,-156861.816,-110546.498,-138686.942,-107524.05,-120612.159,-113353.787,-154245.812
1.2,09-22-2026 21:27:42:719,-221818.891,-157841.359,-182817.019,-159518.097,-178065.977,-190987.118,-185759.492,-162461.509
1.204,09-22-2026 21:27:42:723,-222027.745,-158086.11,-197312.483,-178083.992,-193256.178,-207004.333,-200287.724,-177431.992
1.208,09-22-2026 21:27:42:727,-222007.897,-157415.96,-145789.924,-170604.92,-143201.592,-157057.885,-148668.605,-178578.905
1.212,09-22-2026 21:27:42:731,-221756.485,-156592.969,-88256.399,-145363.05,-85511.561,-99492.487,-91027.256,-163860.192
1.216,09-22-2026 21:27:42:735,-221637.395,-156863.38,-111441.551,-138818.862,-107569.514,-121502.786,-114255.859,-154302.586
1.22,09-22-2026 21:27:42:739,-221809.414,-157850.97,-182714.424,-159697.939,-177985.287,-191766.434,-185662.307,-162522.127
1.224,09-22-2026 21:27:42:743,-222021.129,-158086.11,-197312.483,-178395.62,-193256.178,-207004.333,-200287.724,-177623.144
1.228,09-22-2026 21:27:42:747,-221997.973,-157415.96,-146648.633,-170916.548,-143201.592,-157057.885,-149528.924,-178578.905
1.232,09-22-2026 21:27:42:751,-221749.869,-156592.969,-88256.399,-145674.678,-85511.561,-99492.487,-91027.256,-164051.344
1.236,09-22-2026 21:27:42:755,-221634.087,-156875.137,-112300.26,-139130.49,-108417.896,-122349.336,-115116.178,-154493.738
1.24,09-22-2026 21:27:42:759,-221806.106,-157850.97,-183573.134,-160009.567,-178833.67,-192612.984,-186522.625,-162904.431
1.244,09-22-2026 21:27:42:763,-222014.513,-158086.11,-197312.483,-178395.62,-193256.178,-207004.333,-200287.724,-177814.296
1.248,09-22-2026 21:27:42:767,-221991.357,-157415.96,-145789.924,-170916.548,-143201.592,-157057.885,-148668.605,-178578.905
1.252,09-22-2026 21:27:42:771,-221749.869,-156604.726,-88256.399,-145674.678,-85511.561,-99492.487,-91027.256,-164051.344
1.256,09-22-2026 21:27:42:775,-221634.087,-156886.894,-112300.26,-139130.49,-108417.896,-122349.336,-115116.178,-154493.738
1.26,09-22-2026 21:27:42:779,-221802.798,-157850.97,-182714.424,-160009.567,-177985.287,-191766.434,-185662.307,-162904.431
1.264,09-22-2026 21:27:42:783,-222011.205,-158086.11,-197312.483,-178395.62,-193256.178,-207004.333,-200287.724,-177814.296
1.268,09-22-2026 21:27:42:787,-221988.049,-157415.96,-145789.924,-170916.548,-143201.592,-157057.885,-148668.605,-178578.905
1.272,09-22-2026 21:27:42:791,-221743.252,-156604.726,-89115.109,-145674.678,-86359.943,-100339.037,-91887.574,-164051.344
1.276,09-22-2026 21:27:42:795,-221627.47,-156886.894,-112300.26,-139130.49,-108417.896,-122349.336,-115116.178,-154684.89
1.28,09-22-2026 21:27:42:799,-221792.873,-157850.97,-182714.424,-160009.567,-178833.67,-191766.434,-185662.307,-163095.583
1.284,09-22-2026 21:27:42:803,-221997.973,-158086.11,-197312.483,-178395.62,-193256.178,-207004.333,-200287.724,-177814.296
1.288,09-22-2026 21:27:42:807,-221971.508,-157404.203,-145789.924,-170604.92,-142353.209,-157057.885,-148668.605,-178578.905
1.292,09-22-2026 21:27:42:811,-221726.712,-156604.726,-88256.399,-145363.05,-85511.561,-99492.487,-91027.256,-164051.344
1.296,09-22-2026 21:27:42:815,-221607.622,-156886.894,-112300.26,-139130.49,-108417.896,-122349.336,-115116.178,-154493.738
1.3,09-22-2026 21:27:42:819,-221779.641,-157850.97,-183573.134,-160009.567,-178833.67,-191766.434,-185662.307,-162904.431
1.304,09-22-2026 21:27:42:823,-221983.847,-158089.597,-196819.09,-178271.836,-192774.587,-206532.622,-199790.263,-177727.884
1.308,09-22-2026 21:27:42:827,-221961.316,-157414.351,-145446.735,-170548.191,-142862.426,-156720.687,-148329.395,-178485.877
1.312,09-22-2026 21:27:42:831,-221716.699,-156608.794,-88937.144,-145523.58,-86182.515,-100154.591,-91722.44,-163894.524
1.316,09-22-2026 21:27:42:835,-221604.046,-156904.955,-112910.91,-139344.664,-109023.673,-122949.883,-115737.512,-154609.117
1.32,09-22-2026 21:27:42:839,-221774.634,-157876.361,-183976.002,-160352.979,-179239.086,-192180.031,-186067.365,-163136.531
1.324,09-22-2026 21:27:42:843,-221980.628,-158101.443,-196819.09,-178580.782,-192774.587,-206532.622,-199790.263,-177917.382
1.328,09-22-2026 21:27:42:847,-221951.66,-157414.351,-144590.529,-170548.191,-142016.458,-155876.417,-148329.395,-178485.877
1.332,09-22-2026 21:27:42:851,-221707.043,-156620.64,-88080.938,-145214.635,-85336.546,-99310.321,-90864.759,-163705.026
1.336,09-22-2026 21:27:42:855,-221591.171,-156916.801,-112910.91,-139344.664,-109023.673,-122949.883,-115737.512,-154419.619
1.34,09-22-2026 21:27:42:859,-221764.978,-157900.054,-184832.208,-160661.925,-180085.055,-193024.301,-186925.046,-163326.03
1.344,09-22-2026 21:27:42:863,-221967.753,-158113.29,-196819.09,-178580.782,-192774.587,-206532.622,-199790.263,-178106.881
1.348,09-22-2026 21:27:42:867,-221942.004,-157426.197,-144590.529,-170548.191,-142016.458,-155876.417,-147471.714,-178485.877
1.352,09-22-2026 21:27:42:871,-221697.387,-156632.487,-88080.938,-145214.635,-85336.546,-99310.321,-90864.759,-163705.026
1.356,09-22-2026 21:27:42:875,-221581.515,-156928.647,-112910.91,-139344.664,-109023.673,-122949.883,-115737.512,-154419.619
1.36,09-22-2026 21:27:42:879,-221752.104,-157900.054,-183976.002,-160661.925,-180085.055,-193024.301,-186925.046,-163326.03
1.364,09-22-2026 21:27:42:883,-221961.316,-158113.29,-196819.09,-178580.782,-192774.587,-206532.622,-199790.263,-178106.881
1.368,09-22-2026 21:27:42:887,-221932.348,-157426.197,-144590.529,-170239.245,-141170.489,-155032.147,-147471.714,-178485.877
1.372,09-22-2026 21:27:42:891,-221690.949,-156632.487,-88080.938,-144905.689,-85336.546,-99310.321,-90864.759,-163515.528
1.376,09-22-2026 21:27:42:895,-221578.297,-156928.647,-112910.91,-139344.664,-109869.642,-122949.883,-115737.512,-154419.619
1.38,09-22-2026 21:27:42:899,-221748.885,-157911.901,-184832.208,-160661.925,-180085.055,-193868.571,-187782.727,-163326.03
1.384,09-22-2026 21:27:42:903,-221954.879,-158113.29,-196819.09,-178580.782,-192774.587,-206532.622,-199790.263,-178106.881
1.388,09-22-2026 21:27:42:907,-221929.13,-157426.197,-143734.323,-170239.245,-141170.489,-155032.147,-146614.033,-178485.877
1.392,09-22-2026 21:27:42:911,-221687.731,-156632.487,-88080.938,-144905.689,-85336.546,-99310.321,-90864.759,-163515.528
1.396,09-22-2026 21:27:42:915,-221581.515,-156952.34,-113767.116,-139344.664,-109869.642,-123794.153,-116595.193,-154419.619
1.4,09-22-2026 21:27:42:919,-221758.541,-157935.593,-185688.413,-160970.871,-180931.023,-193868.571,-187782.727,-163326.03
1.404,09-22-2026 21:27:42:923,-221960.78,-158143.286,-196919.718,-178759.149,-192924.746,-206686.223,-199902.245,-178115.017
1.408,09-22-2026 21:27:42:927,-221936.819,-157445.822,-144331.204,-170336.744,-140936.153,-154795.799,-147218.29,-178494.728
1.412,09-22-2026 21:27:42:931,-221694.213,-156664.182,-87432.156,-144757.586,-84686.2,-98652.062,-90215.977,-163496.126
1.416,09-22-2026 21:27:42:935,-221586.388,-156976.838,-113295.36,-139454.59,-110254.36,-123321.28,-116126.119,-154383.052
1.42,09-22-2026 21:27:42:939,-221760.106,-157962.907,-185712.33,-160978.515,-180992.938,-194776.946,-188674.517,-163496.126
1.424,09-22-2026 21:27:42:943,-221966.77,-158179.362,-196919.718,-179071.09,-192924.746,-206686.223,-199902.245,-178304.872
1.428,09-22-2026 21:27:42:947,-221939.814,-157469.873,-143469.097,-170336.744,-140936.153,-154795.799,-146354.618,-178494.728
1.432,09-22-2026 21:27:42:951,-221697.208,-156688.232,-87432.156,-144757.586,-84686.2,-98652.062,-90215.977,-163496.126
1.436,09-22-2026 21:27:42:955,-221586.388,-157000.888,-114157.467,-139454.59,-110254.36,-123321.28,-116126.119,-154383.052
1.44,09-22-2026 21:27:42:959,-221760.106,-157986.958,-185712.33,-161290.456,-181845.21,-194776.946,-188674.517,-163496.126
1.444,09-22-2026 21:27:42:963,-221963.775,-158179.362,-196919.718,-179071.09,-192924.746,-206686.223,-199902.245,-178494.728
1.448,09-22-2026 21:27:42:967,-221936.819,-157481.898,-143469.097,-170336.744,-140083.881,-154795.799,-146354.618,-178494.728
1.452,09-22-2026 21:27:42:971,-221694.213,-156688.232,-87432.156,-144757.586,-84686.2,-98652.062,-90215.977,-163496.126
1.456,09-22-2026 21:27:42:975,-221586.388,-157024.939,-114157.467,-139454.59,-110254.36,-124171.942,-116989.79,-154383.052
1.46,09-22-2026 21:27:42:979,-221760.106,-158011.008,-186574.437,-161602.397,-181845.21,-195627.608,-189538.189,-163875.838
1.464,09-22-2026 21:27:42:983,-221966.77,-158191.387,-196919.718,-179071.09,-192924.746,-206686.223,-199902.245,-178494.728
1.468,09-22-2026 21:27:42:987,-221933.823,-157481.898,-142606.991,-170336.744,-140083.881,-153945.137,-145490.947,-178494.728
1.472,09-22-2026 21:27:42:991,-221694.213,-156700.257,-87432.156,-144757.586,-84686.2,-98652.062,-90215.977,-163306.271
1.476,09-22-2026 21:27:42:995,-221586.388,-157024.939,-114157.467,-139454.59,-110254.36,-124171.942,-116989.79,-154383.052
1.48,09-22-2026 21:27:42:999,-221766.096,-158023.034,-186574.437,-161602.397,-181845.21,-195627.608,-189538.189,-163875.838
1.484,09-22-2026 21:27:43:003,-221966.77,-158191.387,-196919.718,-179071.09,-192924.746,-206686.223,-199902.245,-178494.728
1.488,09-22-2026 21:27:43:007,-221936.819,-157493.923,-142606.991,-170024.803,-139231.609,-153945.137,-145490.947,-178494.728
1.492,09-22-2026 21:27:43:011,-221694.213,-156712.283,-87432.156,-144445.645,-84686.2,-98652.062,-90215.977,-163116.415
1.496,09-22-2026 21:27:43:015,-221589.383,-157048.989,-115019.574,-139454.59,-111106.632,-125022.605,-117853.462,-154383.052
1.5,09-22-2026 21:27:43:019,-221763.101,-158035.059,-187436.543,-161914.338,-182697.482,-196478.271,-190401.86,-163875.838
1.504,09-22-2026 21:27:43:023,-221964.222,-158208.687,-196627.76,-179220.4,-192671.545,-206461.812,-199622.446,-178812.257
1.508,09-22-2026 21:27:43:027,-221933.376,-157489.855,-142095.359,-170091.143,-138736.205,-153465.736,-144985.842,-178423.247
1.512,09-22-2026 21:27:43:031,-221689.698,-156711.12,-86697.365,-144277.381,-83944.748,-97905.335,-89481.99,-163057.362
1.516,09-22-2026 21:27:43:035,-221581.739,-157058.556,-114396.362,-139555.352,-111340.476,-124403.372,-117233.916,-154304.642
1.52,09-22-2026 21:27:43:039,-221754.473,-158040.96,-187971.823,-161906.291,-183254.264,-196204.507,-190082.722,-164029.886
1.524,09-22-2026 21:27:43:043,-221954.968,-158208.687,-196627.76,-179220.4,-192671.545,-206461.812,-199622.446,-178812.257
1.528,09-22-2026 21:27:43:047,-221924.123,-157489.855,-142095.359,-170091.143,-138736.205,-152610.961,-144985.842,-178423.247
1.532,09-22-2026 21:27:43:051,-221680.444,-156711.12,-86697.365,-144277.381,-83944.748,-97905.335,-89481.99,-163057.362
1.536,09-22-2026 21:27:43:055,-221575.57,-157058.556,-115261.956,-139555.352,-111340.476,-125258.148,-118101.164,-154304.642
1.54,09-22-2026 21:27:43:059,-221751.389,-158040.96,-187971.823,-161906.291,-183254.264,-197059.282,-190949.969,-164029.886
1.544,09-22-2026 21:27:43:063,-221954.968,-158208.687,-196627.76,-179535.202,-192671.545,-206461.812,-199622.446,-178812.257
1.548,09-22-2026 21:27:43:067,-221927.207,-157489.855,-141229.766,-170091.143,-138736.205,-152610.961,-144118.594,-178617.752
1.552,09-22-2026 21:27:43:071,-221686.613,-156723.101,-86697.365,-144277.381,-83944.748,-97905.335,-89481.99,-163057.362
1.556,09-22-2026 21:27:43:075,-221584.823,-157082.517,-115261.956,-139555.352,-112196.593,-125258.148,-118101.164,-154304.642
1.56,09-22-2026 21:27:43:079,-221763.727,-158076.901,-188837.417,-162221.093,-184110.38,-197059.282,-191817.217,-164224.391
1.564,09-22-2026 21:27:43:083,-221964.222,-158232.648,-196627.76,-179535.202,-192671.545,-206461.812,-199622.446,-179006.762
1.568,09-22-2026 21:27:43:087,-221930.292,-157501.836,-141229.766,-170091.143,-137880.088,-152610.961,-144118.594,-178617.752
1.572,09-22-2026 21:27:43:091,-221689.698,-156735.081,-86697.365,-144277.381,-83944.748,-97905.335,-89481.99,-163057.362
1.576,09-22-2026 21:27:43:095,-221584.823,-157094.497,-115261.956,-139555.352,-112196.593,-125258.148,-118101.164,-154304.642
1.58,09-22-2026 21:27:43:099,-221763.727,-158088.882,-188837.417,-162535.895,-184110.38,-197914.058,-191817.217,-164418.896
1.584,09-22-2026 21:27:43:103,-221961.137,-158232.648,-196627.76,-179535.202,-192671.545,-206461.812,-199622.446,-179006.762
1.588,09-22-2026 21:27:43:107,-221927.207,-157501.836,-141229.766,-169776.341,-137880.088,-151756.186,-144118.594,-178617.752
1.592,09-22-2026 21:27:43:111,-221683.529,-156747.062,-86697.365,-143962.579,-83944.748,-97905.335,-89481.99,-162862.857
1.596,09-22-2026 21:27:43:115,-221581.739,-157106.478,-116127.55,-139555.352,-112196.593,-126112.923,-118968.412,-154304.642
1.6,09-22-2026 21:27:43:119,-221763.727,-158100.862,-188837.417,-162535.895,-184110.38,-197914.058,-191817.217,-164418.896
1.604,09-22-2026 21:27:43:123,-221964.177,-158254.91,-196320.155,-179701.856,-192368.277,-206161.851,-199311.042,-179057.053
1.608,09-22-2026 21:27:43:127,-221930.247,-157513.19,-140079.813,-169580.986,-137599.708,-151473.391,-142969,-178460.798
1.612,09-22-2026 21:27:43:131,-221686.568,-156759.311,-86435.179,-143962.535,-83686.898,-97639.438,-89227.359,-162759.413
1.616,09-22-2026 21:27:43:135,-221584.779,-157124.091,-115853.204,-139850.931,-112782.7,-125838.176,-118698.581,-154411.841
1.62,09-22-2026 21:27:43:139,-221766.767,-158121.158,-189398.267,-162622.888,-184666.447,-198471.287,-192376.637,-164548.178
1.624,09-22-2026 21:27:43:143,-221964.177,-158254.91,-196320.155,-179701.856,-192368.277,-206161.851,-199311.042,-179255.805
1.628,09-22-2026 21:27:43:147,-221927.163,-157525.35,-140079.813,-169580.986,-137599.708,-151473.391,-142969,-178460.798
1.632,09-22-2026 21:27:43:151,-221680.399,-156771.47,-86435.179,-143962.535,-83686.898,-97639.438,-89227.359,-162759.413
1.636,09-22-2026 21:27:43:155,-221578.61,-157136.25,-116718.44,-139850.931,-112782.7,-126692.683,-119565.382,-154411.841
1.64,09-22-2026 21:27:43:159,-221760.597,-158133.317,-189398.267,-162939.166,-185522.206,-198471.287,-192376.637,-164746.93
1.644,09-22-2026 21:27:43:163,-221961.093,-158279.229,-196320.155,-180018.134,-192368.277,-206161.851,-199311.042,-179255.805
1.648,09-22-2026 21:27:43:167,-221920.994,-157525.35,-140079.813,-169580.986,-136743.949,-150618.884,-142969,-178460.798
1.652,09-22-2026 21:27:43:171,-221677.315,-156783.629,-86435.179,-143962.535,-83686.898,-97639.438,-89227.359,-162759.413
1.656,09-22-2026 21:27:43:175,-221578.61,-157160.569,-116718.44,-139850.931,-113638.459,-126692.683,-119565.382,-154411.841
1.66,09-22-2026 21:27:43:179,-221760.597,-158157.636,-190263.503,-163255.443,-185522.206,-199325.794,-193243.437,-164945.682
1.664,09-22-2026 21:27:43:183,-221958.008,-158279.229,-196320.155,-180018.134,-192368.277,-206161.851,-199311.042,-179454.557
1.668,09-22-2026 21:27:43:187,-221920.994,-157537.509,-139214.577,-169580.986,-136743.949,-150618.884,-142102.199,-178659.55
1.672,09-22-2026 21:27:43:191,-221677.315,-156795.789,-86435.179,-143646.257,-83686.898,-97639.438,-89227.359,-162759.413
1.676,09-22-2026 21:27:43:195,-221581.694,-157184.888,-117583.676,-140167.208,-113638.459,-127547.19,-120432.183,-154610.593
1.68,09-22-2026 21:27:43:199,-221769.851,-158194.114,-191128.739,-163571.72,-186377.965,-200180.301,-194110.238,-165144.433
1.684,09-22-2026 21:27:43:203,-221967.262,-158303.548,-196320.155,-180018.134,-192368.277,-206161.851,-199311.042,-179653.308
1.688,09-22-2026 21:27:43:207,-221927.163,-157561.828,-139214.577,-169580.986,-135888.19,-150618.884,-142102.199,-178659.55
1.692,09-22-2026 21:27:43:211,-221686.568,-156820.107,-86435.179,-143646.257,-83686.898,-97639.438,-89227.359,-162759.413
1.696,09-22-2026 21:27:43:215,-221587.863,-157221.366,-117583.676,-140167.208,-114494.218,-127547.19,-120432.183,-154610.593
1.7,09-22-2026 21:27:43:219,-221779.105,-158218.432,-191128.739,-163887.997,-187233.724,-200180.301,-194110.238,-165343.185
1.704,09-22-2026 21:27:43:223,-221979.734,-158338.506,-195888.23,-180294.893,-191968.941,-205783.258,-198881.844,-179851.658
1.708,09-22-2026 21:27:43:227,-221935.299,-157584.805,-139030.488,-169306.552,-135716.037,-149601.164,-141917.886,-178657.806
1.712,09-22-2026 21:27:43:231,-221694.079,-156856.228,-86480.151,-143562.438,-83724.717,-97675.29,-89269.38,-162739.788
1.716,09-22-2026 21:27:43:235,-221598.86,-157258.202,-118354.946,-140422.912,-114408.119,-128320.069,-121203.72,-154780.779
1.72,09-22-2026 21:27:43:239,-221789.297,-158263.136,-191580.825,-163969.357,-186855.04,-200675.795,-194566.392,-165525.441
1.724,09-22-2026 21:27:43:243,-221986.082,-158363.629,-195888.23,-180294.893,-191968.941,-205783.258,-198881.844,-179851.658
1.728,09-22-2026 21:27:43:247,-221944.821,-157622.49,-138169.007,-169306.552,-135716.037,-149601.164,-141054.796,-178657.806
1.732,09-22-2026 21:27:43:251,-221700.427,-156893.913,-86480.151,-143562.438,-83724.717,-97675.29,-89269.38,-162739.788
1.736,09-22-2026 21:27:43:255,-221608.382,-157295.887,-118354.946,-140422.912,-115260.436,-128320.069,-121203.72,-154780.779
1.74,09-22-2026 21:27:43:259,-221798.819,-158300.821,-191580.825,-163969.357,-186855.04,-200675.795,-194566.392,-165525.441
1.744,09-22-2026 21:27:43:263,-221995.604,-158401.314,-195888.23,-180294.893,-191968.941,-205783.258,-198881.844,-180050.633
1.748,09-22-2026 21:27:43:267,-221947.994,-157647.614,-138169.007,-169306.552,-135716.037,-149601.164,-141054.796,-178657.806
1.752,09-22-2026 21:27:43:271,-221703.6,-156919.036,-86480.151,-143562.438,-83724.717,-97675.29,-89269.38,-162739.788
1.756,09-22-2026 21:27:43:275,-221608.382,-157321.01,-118354.946,-140422.912,-115260.436,-128320.069,-121203.72,-154780.779
1.76,09-22-2026 21:27:43:279,-221801.993,-158325.944,-192442.306,-164283.31,-187707.357,-200675.795,-194566.392,-165724.416
1.764,09-22-2026 21:27:43:283,-221998.778,-158426.438,-195888.23,-180294.893,-191968.941,-205783.258,-198881.844,-180050.633
1.768,09-22-2026 21:27:43:287,-221954.342,-157672.737,-138169.007,-169306.552,-134863.721,-149601.164,-141054.796,-178657.806
1.772,09-22-2026 21:27:43:291,-221709.948,-156944.16,-86480.151,-143562.438,-83724.717,-97675.29,-89269.38,-162739.788
1.776,09-22-2026 21:27:43:295,-221617.904,-157358.695,-119216.427,-140422.912,-115260.436,-129171.312,-122066.81,-154780.779
1.78,09-22-2026 21:27:43:299,-221808.341,-158363.629,-192442.306,-164283.31,-187707.357,-201527.038,-195429.483,-165923.392
1.784,09-22-2026 21:27:43:303,-222001.952,-158451.561,-195888.23,-180294.893,-191968.941,-205783.258,-198881.844,-180050.633
1.788,09-22-2026 21:27:43:307,-221954.342,-157697.86,-137307.526,-169306.552,-134863.721,-148749.921,-140191.706,-178657.806
1.792,09-22-2026 21:27:43:311,-221709.948,-156969.283,-86480.151,-143562.438,-83724.717,-97675.29,-89269.38,-162739.788
1.796,09-22-2026 21:27:43:315,-221614.73,-157383.818,-119216.427,-140736.865,-115260.436,-129171.312,-122066.81,-154979.754
1.8,09-22-2026 21:27:43:319,-221805.167,-158388.753,-192442.306,-164597.263,-187707.357,-201527.038,-195429.483,-165923.392
1.804,09-22-2026 21:27:43:323,-222000.7,-158467.252,-195251.026,-180343.486,-191350.379,-205179.805,-198244.506,-180269.591
1.808,09-22-2026 21:27:43:327,-221953.091,-157705.058,-137711.512,-169377.049,-134403.9,-148296.225,-140594.171,-178669.206
1.812,09-22-2026 21:27:43:331,-221705.523,-156992.037,-86183.588,-143370.929,-83407.054,-97355.705,-88967.006,-162665.357
1.816,09-22-2026 21:27:43:335,-221616.652,-157410.015,-119676.738,-140864.315,-115705.057,-129618.034,-122524.664,-155063.528
1.82,09-22-2026 21:27:43:339,-221810.263,-158405.785,-192674.63,-164677.148,-187950.589,-201783.771,-195663.148,-166066.175
1.824,09-22-2026 21:27:43:343,-222007.048,-158491.839,-195251.026,-180656.812,-191350.379,-205179.805,-198244.506,-180269.591
1.828,09-22-2026 21:27:43:347,-221956.265,-157729.645,-136852.713,-169063.722,-134403.9,-148296.225,-139733.719,-178669.206
1.832,09-22-2026 21:27:43:351,-221711.871,-157016.624,-86183.588,-143370.929,-83407.054,-97355.705,-88967.006,-162665.357
1.836,09-22-2026 21:27:43:355,-221623,-157434.601,-120535.537,-140864.315,-116555.004,-129618.034,-122524.664,-155063.528
1.84,09-22-2026 21:27:43:359,-221819.785,-158442.665,-193533.429,-164990.475,-188800.536,-202632.779,-196523.6,-166266.223
1.844,09-22-2026 21:27:43:363,-222010.222,-158516.426,-195251.026,-180656.812,-191350.379,-205179.805,-198244.506,-180469.639
1.848,09-22-2026 21:27:43:367,-221959.439,-157754.231,-136852.713,-169063.722,-133553.953,-148296.225,-139733.719,-178869.254
1.852,09-22-2026 21:27:43:371,-221715.045,-157028.917,-86183.588,-143370.929,-83407.054,-97355.705,-88967.006,-162665.357
1.856,09-22-2026 21:27:43:375,-221626.174,-157459.188,-120535.537,-140864.315,-116555.004,-130467.043,-123385.116,-155063.528
1.86,09-22-2026 21:27:43:379,-221819.785,-158467.252,-193533.429,-164990.475,-188800.536,-202632.779,-196523.6,-166266.223
1.864,09-22-2026 21:27:43:383,-222010.222,-158528.719,-195251.026,-180656.812,-191350.379,-205179.805,-198244.506,-180469.639
1.868,09-22-2026 21:27:43:387,-221956.265,-157754.231,-135993.914,-169063.722,-133553.953,-147447.216,-138873.266,-178669.206
1.872,09-22-2026 21:27:43:391,-221711.871,-157053.504,-86183.588,-143370.929,-83407.054,-97355.705,-88967.006,-162465.309
1.876,09-22-2026 21:27:43:395,-221626.174,-157483.775,-120535.537,-140864.315,-116555.004,-130467.043,-123385.116,-155063.528
1.88,09-22-2026 21:27:43:399,-221826.133,-158491.839,-194392.227,-165303.801,-189650.484,-202632.779,-196523.6,-166466.271
1.884,09-22-2026 21:27:43:403,-222016.57,-158553.306,-195251.026,-180656.812,-191350.379,-205179.805,-198244.506,-180469.639
1.888,09-22-2026 21:27:43:407,-221962.613,-157778.818,-135993.914,-169063.722,-132704.006,-147447.216,-138873.266,-178669.206
1.892,09-22-2026 21:27:43:411,-221715.045,-157078.091,-86183.588,-143057.602,-83407.054,-97355.705,-88967.006,-162465.309
1.896,09-22-2026 21:27:43:415,-221626.174,-157508.362,-120535.537,-140864.315,-116555.004,-130467.043,-123385.116,-155063.528
1.9,09-22-2026 21:27:43:419,-221826.133,-158504.132,-193533.429,-165303.801,-189650.484,-202632.779,-196523.6,-166266.223
1.904,09-22-2026 21:27:43:423,-222017.821,-158578.161,-194937.029,-180754.221,-191046.484,-204898.754,-197932.297,-180599.011
1.908,09-22-2026 21:27:43:427,-221962.3,-157799.963,-135858.82,-168902.164,-132575.93,-147327.277,-138743.045,-178586.46
1.912,09-22-2026 21:27:43:431,-221715.536,-157094.721,-86198.877,-143014.776,-83426.769,-97375.554,-88989.76,-162486.051
1.916,09-22-2026 21:27:43:435,-221632.254,-157532.457,-121303.319,-141143.398,-117322.742,-131241.129,-124160.185,-155039.612
1.92,09-22-2026 21:27:43:439,-221832.749,-158541.683,-194937.029,-165471.305,-190199.085,-203205.476,-197932.297,-166511.153
1.924,09-22-2026 21:27:43:443,-222023.99,-158602.48,-194937.029,-180754.221,-191046.484,-204898.754,-197932.297,-180599.011
1.928,09-22-2026 21:27:43:447,-221968.469,-157812.122,-135858.82,-168902.164,-132575.93,-146480.637,-138743.045,-178787.715
1.932,09-22-2026 21:27:43:451,-221721.705,-157119.04,-86198.877,-143326.672,-83426.769,-97375.554,-88989.76,-162486.051
1.936,09-22-2026 21:27:43:455,-221638.423,-157556.776,-121303.319,-141143.398,-117322.742,-130394.489,-124160.185,-155039.612
1.94,09-22-2026 21:27:43:459,-221835.833,-158553.843,-194080.823,-165471.305,-189351.686,-203205.476,-197074.481,-166511.153
1.944,09-22-2026 21:27:43:463,-222023.99,-158614.639,-194937.029,-180442.325,-191046.484,-204898.754,-197932.297,-180397.756
1.948,09-22-2026 21:27:43:467,-221968.469,-157836.441,-135858.82,-168902.164,-133423.329,-147327.277,-138743.045,-178586.46
1.952,09-22-2026 21:27:43:471,-221721.705,-157143.358,-86198.877,-143326.672,-83426.769,-97375.554,-88989.76,-162486.051
1.956,09-22-2026 21:27:43:475,-221635.338,-157568.935,-120447.114,-141143.398,-117322.742,-130394.489,-123302.37,-155039.612
1.96,09-22-2026 21:27:43:479,-221826.58,-158566.002,-193224.617,-165159.409,-188504.286,-202358.836,-196216.666,-166309.898
1.964,09-22-2026 21:27:43:483,-222014.737,-158626.799,-194937.029,-180442.325,-191046.484,-204898.754,-197932.297,-180397.756
1.968,09-22-2026 21:27:43:487,-221959.215,-157848.6,-135002.614,-168590.268,-132575.93,-146480.637,-137885.229,-178385.204
1.972,09-22-2026 21:27:43:491,-221715.536,-157155.518,-86198.877,-143014.776,-83426.769,-97375.554,-88989.76,-162284.796
1.976,09-22-2026 21:27:43:495,-221632.254,-157593.254,-121303.319,-141143.398,-117322.742,-131241.129,-124160.185,-155039.612
1.98,09-22-2026 21:27:43:499,-221832.749,-158590.321,-194080.823,-165159.409,-189351.686,-202358.836,-196216.666,-166309.898
1.984,09-22-2026 21:27:43:503,-222020.906,-158638.958,-194080.823,-180442.325,-190199.085,-204052.115,-197074.481,-180397.756
1.988,09-22-2026 21:27:43:507,-221959.215,-157860.76,-135002.614,-168590.268,-132575.93,-146480.637,-137885.229,-178385.204
1.992,09-22-2026 21:27:43:511,-221715.536,-157167.677,-86198.877,-143014.776,-83426.769,-97375.554,-88989.76,-162284.796
1.996,09-22-2026 21:27:43:515,-221632.254,-157605.414,-121303.319,-141143.398,-117322.742,-131241.129,-124160.185,-155039.612
2,09-22-2026 21:27:43:519,-221829.664,-158590.321,-193224.617,-165159.409,-188504.286,-202358.836,-196216.666,-166309.898
2.004,09-22-2026 21:27:43:523,-222016.883,-158655.633,-194163.122,-180335.886,-190386.884,-203974.957,-197074.347,-180270.976
2.008,09-22-2026 21:27:43:527,-221960.377,-157862.369,-135414.959,-168267.821,-131798.045,-146417.427,-138261.409,-178257.978
2.012,09-22-2026 21:27:43:531,-221716.699,-157191.146,-86883.868,-143203.38,-84089.99,-98035.735,-89676.808,-162355.293
2.016,09-22-2026 21:27:43:535,-221635.472,-157630.492,-121792.197,-141346.755,-117569.326,-131402.419,-124623.626,-155108.5
2.02,09-22-2026 21:27:43:539,-221840.304,-158619.02,-194163.122,-165482.884,-189549.901,-203140.79,-197074.347,-166582.589
2.024,09-22-2026 21:27:43:543,-222031.009,-158680.041,-194163.122,-180645.323,-190386.884,-203974.957,-197074.347,-180472.276
2.028,09-22-2026 21:27:43:547,-221970.972,-157886.777,-134563.537,-168267.821,-131798.045,-146417.427,-137409.048,-178459.278
2.032,09-22-2026 21:27:43:551,-221734.356,-157215.554,-86883.868,-143203.38,-84089.99,-98035.735,-89676.808,-162355.293
2.036,09-22-2026 21:27:43:555,-221660.193,-157679.308,-123495.042,-141656.192,-119243.293,-133070.753,-125475.988,-155309.8
2.04,09-22-2026 21:27:43:559,-221868.556,-158680.041,-195014.545,-166411.196,-190386.884,-203974.957,-197926.709,-167186.489
2.044,09-22-2026 21:27:43:563,-222052.198,-158704.449,-194163.122,-180645.323,-189549.901,-203974.957,-197074.347,-180673.576
2.048,09-22-2026 21:27:43:567,-221995.693,-157923.389,-134563.537,-168577.259,-131798.045,-145583.26,-137409.048,-178459.278
2.052,09-22-2026 21:27:43:571,-221755.546,-157252.167,-86883.868,-143203.38,-84089.99,-98035.735,-89676.808,-162355.293
2.056,09-22-2026 21:27:43:575,-221681.383,-157703.716,-122643.619,-141656.192,-119243.293,-133070.753,-125475.988,-155309.8
2.06,09-22-2026 21:27:43:579,-221886.214,-158692.245,-195014.545,-166411.196,-190386.884,-203974.957,-197926.709,-167186.489
2.064,09-22-2026 21:27:43:583,-222073.388,-158728.857,-193311.699,-180645.323,-189549.901,-203974.957,-197074.347,-180673.576
2.068,09-22-2026 21:27:43:587,-222009.819,-157935.593,-133712.114,-168267.821,-130961.061,-145583.26,-137409.048,-178459.278
2.072,09-22-2026 21:27:43:591,-221773.204,-157276.575,-86883.868,-143203.38,-84089.99,-98035.735,-89676.808,-162355.293
2.076,09-22-2026 21:27:43:595,-221699.041,-157740.329,-123495.042,-141965.63,-120080.277,-133070.753,-126328.349,-155511.1
2.08,09-22-2026 21:27:43:599,-221903.872,-158728.857,-195014.545,-166411.196,-190386.884,-203974.957,-197926.709,-167186.489
2.084,09-22-2026 21:27:43:603,-222083.982,-158741.061,-193311.699,-180645.323,-189549.901,-203140.79,-196221.986,-180673.576
2.088,09-22-2026 21:27:43:607,-222023.946,-157960.002,-133712.114,-168267.821,-130961.061,-145583.26,-136556.686,-178459.278
2.092,09-22-2026 21:27:43:611,-221780.267,-157288.779,-86883.868,-143203.38,-84089.99,-98035.735,-89676.808,-162556.593
2.096,09-22-2026 21:27:43:615,-221709.635,-157752.533,-123495.042,-141965.63,-120080.277,-133904.92,-126328.349,-155511.1
2.1,09-22-2026 21:27:43:619,-221910.935,-158741.061,-195014.545,-166411.196,-190386.884,-203974.957,-197926.709,-167387.789
2.104,09-22-2026 21:27:43:623,-222096.142,-158768.151,-193392.434,-180857.397,-189623.349,-203233.415,-196301.648,-180816.18
2.108,09-22-2026 21:27:43:627,-222030.875,-157977.436,-133736.522,-168148.284,-130978.183,-144776.004,-136583.151,-178438.133
2.112,09-22-2026 21:27:43:631,-221792.65,-157316.54,-87716.247,-143335.255,-84899.838,-98845.181,-90514.596,-162584.488
2.116,09-22-2026 21:27:43:635,-221724.119,-157788.608,-124362.022,-142427.461,-120924.726,-134754.733,-127198.816,-155846.689
2.12,09-22-2026 21:27:43:639,-221929.711,-158779.953,-195949.116,-166937.893,-191298.925,-204903.627,-198861.012,-167736.923
2.124,09-22-2026 21:27:43:643,-222109.195,-158779.953,-193392.434,-180857.397,-188785.561,-203233.415,-196301.648,-181014.351
2.128,09-22-2026 21:27:43:647,-222040.665,-157989.238,-132884.295,-168148.284,-130140.395,-144776.004,-136583.151,-178438.133
2.132,09-22-2026 21:27:43:651,-221799.177,-157328.341,-87716.247,-143335.255,-84899.838,-98845.181,-90514.596,-162584.488
2.136,09-22-2026 21:27:43:655,-221730.646,-157800.41,-125214.249,-142427.461,-120924.726,-134754.733,-128051.937,-155846.689
2.14,09-22-2026 21:27:43:659,-221936.237,-158791.755,-195949.116,-166937.893,-191298.925,-204903.627,-198861.012,-167736.923
2.144,09-22-2026 21:27:43:663,-222118.985,-158791.755,-192540.207,-180857.397,-188785.561,-203233.415,-196301.648,-181014.351
2.148,09-22-2026 21:27:43:667,-222050.455,-158001.039,-132884.295,-168148.284,-130140.395,-144776.004,-135730.029,-178438.133
2.152,09-22-2026 21:27:43:671,-221812.23,-157351.945,-87716.247,-143335.255,-84899.838,-98845.181,-90514.596,-162584.488
2.156,09-22-2026 21:27:43:675,-221743.7,-157824.014,-125214.249,-142427.461,-120924.726,-134754.733,-128051.937,-155846.689
2.16,09-22-2026 21:27:43:679,-221952.554,-158803.556,-195949.116,-167240.491,-191298.925,-204903.627,-198861.012,-167736.923
2.164,09-22-2026 21:27:43:683,-222125.512,-158803.556,-192540.207,-180857.397,-188785.561,-202398.309,-195448.526,-181014.351
2.168,09-22-2026 21:27:43:687,-222053.718,-158001.039,-132884.295,-167845.686,-130140.395,-143940.898,-135730.029,-178239.963
2.172,09-22-2026 21:27:43:691,-221815.493,-157351.945,-87716.247,-143335.255,-84899.838,-98845.181,-90514.596,-162386.318
2.176,09-22-2026 21:27:43:695,-221750.226,-157835.815,-125214.249,-142730.059,-121762.514,-135589.839,-128051.937,-155846.689
2.18,09-22-2026 21:27:43:699,-221959.081,-158815.358,-195949.116,-167240.491,-191298.925,-204903.627,-198861.012,-167935.093
2.184,09-22-2026 21:27:43:703,-222135.302,-158815.358,-192540.207,-180857.397,-188785.561,-203233.415,-196301.648,-181014.351
2.188,09-22-2026 21:27:43:707,-222063.508,-158001.039,-132884.295,-167845.686,-129302.606,-143940.898,-135730.029,-178438.133
2.192,09-22-2026 21:27:43:711,-221822.02,-157363.746,-87716.247,-143032.657,-84899.838,-98845.181,-90514.596,-162386.318
2.196,09-22-2026 21:27:43:715,-221756.753,-157847.617,-126066.476,-142730.059,-121762.514,-135589.839,-128905.058,-155846.689
2.2,09-22-2026 21:27:43:719,-221965.608,-158815.358,-195949.116,-167240.491,-191298.925,-204903.627,-198861.012,-167935.093
2.204,09-22-2026 21:27:43:723,-222138.163,-158807.714,-192427.688,-180612.109,-187854.968,-202324.459,-195337.662,-180868.841
2.208,09-22-2026 21:27:43:727,-222060.468,-158002.649,-132039.533,-167550.42,-129301.131,-143103.512,-134880.663,-178050.644
2.212,09-22-2026 21:27:43:731,-221820.321,-157372.598,-88042.449,-142945.843,-85173.602,-99110.809,-90833.421,-162147.959
2.216,09-22-2026 21:27:43:735,-221753.221,-157850.97,-126000.717,-142642.083,-122512.281,-136335.404,-128834.963,-155706.365
2.22,09-22-2026 21:27:43:739,-221961.584,-158831.049,-196741.128,-167550.42,-192098,-205708.513,-199656.019,-167985.653
2.224,09-22-2026 21:27:43:743,-222134.632,-158807.714,-191565,-180612.109,-187854.968,-201478.446,-194473.99,-180868.841
2.228,09-22-2026 21:27:43:747,-222053.405,-158002.649,-131176.845,-167246.66,-128452.525,-142257.499,-134016.992,-177849.344
2.232,09-22-2026 21:27:43:751,-221809.727,-157372.598,-87179.761,-142642.083,-84324.996,-98264.795,-89969.75,-161745.359
2.236,09-22-2026 21:27:43:755,-221749.69,-157874.305,-126863.405,-142642.083,-123360.887,-137181.418,-129698.635,-155706.365
2.24,09-22-2026 21:27:43:759,-221961.584,-158854.384,-196741.128,-167854.18,-192098,-205708.513,-199656.019,-168186.953
2.244,09-22-2026 21:27:43:763,-222127.568,-158819.381,-190702.312,-180612.109,-187006.362,-201478.446,-193610.319,-180868.841
2.248,09-22-2026 21:27:43:767,-222042.811,-158002.649,-130314.157,-166942.899,-127603.919,-141411.485,-133153.32,-177648.044
2.252,09-22-2026 21:27:43:771,-221795.6,-157372.598,-87179.761,-142338.323,-84324.996,-98264.795,-89969.75,-161544.059
2.256,09-22-2026 21:27:43:775,-221728.5,-157874.305,-126863.405,-142338.323,-122512.281,-136335.404,-129698.635,-155505.065
2.26,09-22-2026 21:27:43:779,-221940.395,-158854.384,-196741.128,-167550.42,-192098,-205708.513,-199656.019,-167985.653
2.264,09-22-2026 21:27:43:783,-222106.379,-158819.381,-190702.312,-180308.349,-187006.362,-200632.432,-193610.319,-180667.541
2.268,09-22-2026 21:27:43:787,-222021.621,-158002.649,-130314.157,-166639.139,-126755.312,-141411.485,-133153.32,-177446.744
2.272,09-22-2026 21:27:43:791,-221770.879,-157372.598,-87179.761,-142034.562,-84324.996,-98264.795,-89969.75,-161342.759
2.276,09-22-2026 21:27:43:795,-221710.842,-157885.973,-126863.405,-142338.323,-123360.887,-136335.404,-129698.635,-155303.765
2.28,09-22-2026 21:27:43:799,-221922.737,-158854.384,-196741.128,-167550.42,-192098,-205708.513,-199656.019,-167784.353
2.284,09-22-2026 21:27:43:803,-222088.721,-158819.381,-190702.312,-180308.349,-187006.362,-200632.432,-193610.319,-180667.541
2.288,09-22-2026 21:27:43:807,-222000.432,-157990.981,-129451.469,-166335.379,-126755.312,-140565.472,-132289.649,-177245.444
2.292,09-22-2026 21:27:43:811,-221749.69,-157372.598,-87179.761,-142034.562,-84324.996,-98264.795,-89969.75,-161141.459
2.296,09-22-2026 21:27:43:815,-221689.653,-157885.973,-126863.405,-142338.323,-122512.281,-136335.404,-129698.635,-155303.765
2.3,09-22-2026 21:27:43:819,-221905.079,-158854.384,-196741.128,-167550.42,-192098,-205708.513,-199656.019,-167784.353
2.304,09-22-2026 21:27:43:823,-222072.762,-158815.492,-190112.315,-180055.014,-186452.485,-200071.135,-193019.964,-180526.725
2.308,09-22-2026 21:27:43:827,-221987.065,-157992.501,-129408.107,-166082.044,-125861.824,-140521.618,-132243.783,-177131.227
2.312,09-22-2026 21:27:43:831,-221739.497,-157381.136,-86915.161,-141781.228,-84045.733,-97986.248,-89700.456,-161152.412
2.316,09-22-2026 21:27:43:835,-221682.366,-157898.445,-127673.701,-142388.748,-123301.655,-137118.788,-130507.321,-155160.356
2.32,09-22-2026 21:27:43:839,-221898.195,-158874.277,-197049.939,-167600.845,-192426.213,-206026.087,-199965.814,-167943.408
2.324,09-22-2026 21:27:43:843,-222069.588,-158827.249,-190112.315,-180055.014,-186452.485,-200071.135,-193019.964,-180526.725
2.328,09-22-2026 21:27:43:847,-221980.717,-157992.501,-128540.904,-166082.044,-125861.824,-139670.91,-131375.552,-177131.227
2.332,09-22-2026 21:27:43:851,-221733.149,-157381.136,-86915.161,-141477.468,-84045.733,-97986.248,-89700.456,-160952.677
2.336,09-22-2026 21:27:43:855,-221676.018,-157898.445,-127673.701,-142388.748,-123301.655,-137118.788,-130507.321,-155160.356
2.34,09-22-2026 21:27:43:859,-221898.195,-158874.277,-197049.939,-167600.845,-192426.213,-206026.087,-199965.814,-167943.408
2.344,09-22-2026 21:27:43:863,-222066.414,-158815.492,-190112.315,-180055.014,-185599.096,-200071.135,-193019.964,-180526.725
2.348,09-22-2026 21:27:43:867,-221977.543,-157992.501,-127673.701,-165778.284,-125008.434,-139670.91,-131375.552,-176931.492
2.352,09-22-2026 21:27:43:871,-221733.149,-157381.136,-86915.161,-141477.468,-84045.733,-97986.248,-89700.456,-160752.941
2.356,09-22-2026 21:27:43:875,-221676.018,-157910.202,-127673.701,-142388.748,-124155.044,-137118.788,-130507.321,-155160.356
2.36,09-22-2026 21:27:43:879,-221898.195,-158874.277,-197049.939,-167600.845,-192426.213,-206026.087,-199965.814,-167743.673
2.364,09-22-2026 21:27:43:883,-222066.414,-158815.492,-189245.112,-179751.254,-185599.096,-199220.428,-192151.733,-180326.99
2.368,09-22-2026 21:27:43:887,-221977.543,-157992.501,-127673.701,-165474.524,-125008.434,-138820.203,-130507.321,-176731.757
2.372,09-22-2026 21:27:43:891,-221729.976,-157392.893,-86915.161,-141477.468,-84045.733,-97986.248,-89700.456,-160553.206
2.376,09-22-2026 21:27:43:895,-221676.018,-157921.959,-127673.701,-142388.748,-124155.044,-137969.495,-130507.321,-155160.356
2.38,09-22-2026 21:27:43:899,-221891.847,-158874.277,-197049.939,-167600.845,-192426.213,-206026.087,-199965.814,-167743.673
2.384,09-22-2026 21:27:43:903,-222060.066,-158815.492,-189245.112,-179751.254,-184745.706,-199220.428,-192151.733,-180127.255
2.388,09-22-2026 21:27:43:907,-221964.848,-157992.501,-127673.701,-165474.524,-125008.434,-138820.203,-130507.321,-176532.021
2.392,09-22-2026 21:27:43:911,-221720.454,-157392.893,-86915.161,-141477.468,-84045.733,-97986.248,-89700.456,-160752.941
2.396,09-22-2026 21:27:43:915,-221669.671,-157921.959,-127673.701,-142388.748,-124155.044,-137969.495,-130507.321,-155160.356
2.4,09-22-2026 21:27:43:919,-221888.673,-158874.277,-197049.939,-167600.845,-192426.213,-206026.087,-199965.814,-167743.673
2.404,09-22-2026 21:27:43:923,-222057.16,-158817.593,-189336.084,-179584.107,-184855.006,-199359.053,-192239.263,-180143.348
2.408,09-22-2026 21:27:43:927,-221967.843,-157996.927,-127564.714,-165383.016,-124904.945,-138730.304,-130394.892,-176559.38
2.412,09-22-2026 21:27:43:931,-221723.047,-157408.986,-87543.826,-141513.096,-84652.762,-98595.78,-90326.707,-160630.633
2.416,09-22-2026 21:27:43:935,-221676.734,-157935.683,-128434.733,-142419.549,-124904.945,-137876.378,-131265.939,-155254.681
2.42,09-22-2026 21:27:43:939,-221898.374,-158891.086,-197166.258,-167800.223,-192562.871,-206190.462,-200078.69,-167997.678
2.424,09-22-2026 21:27:43:943,-222070.393,-158829.842,-188466.065,-179886.258,-184855.006,-199359.053,-192239.263,-180342.457
2.428,09-22-2026 21:27:43:947,-221977.767,-158009.175,-127564.714,-165383.016,-124904.945,-138730.304,-130394.892,-176559.38
2.432,09-22-2026 21:27:43:951,-221739.587,-157421.235,-87543.826,-141513.096,-84652.762,-98595.78,-90326.707,-160630.633
2.436,09-22-2026 21:27:43:955,-221693.274,-157960.18,-129304.752,-142721.7,-124904.945,-138730.304,-132136.987,-155254.681
2.44,09-22-2026 21:27:43:959,-221921.53,-158915.583,-198036.277,-168102.374,-193419.301,-207044.388,-200949.738,-168196.788
2.444,09-22-2026 21:27:43:963,-222086.933,-158842.091,-188466.065,-179886.258,-184855.006,-198505.127,-191368.215,-180541.567
2.448,09-22-2026 21:27:43:967,-221994.307,-158021.424,-127564.714,-165383.016,-124048.516,-138730.304,-130394.892,-176758.489
2.452,09-22-2026 21:27:43:971,-221756.127,-157445.733,-87543.826,-141513.096,-84652.762,-98595.78,-90326.707,-160630.633
2.456,09-22-2026 21:27:43:975,-221709.814,-157984.678,-129304.752,-143023.851,-125761.375,-139584.23,-132136.987,-155453.79
2.46,09-22-2026 21:27:43:979,-221934.762,-158940.081,-198036.277,-168404.525,-193419.301,-207044.388,-200949.738,-168395.897
2.464,09-22-2026 21:27:43:983,-222096.857,-158866.588,-188466.065,-179886.258,-184855.006,-198505.127,-191368.215,-180541.567
2.468,09-22-2026 21:27:43:987,-222004.231,-158033.673,-126694.694,-165383.016,-124048.516,-137876.378,-129523.844,-176758.489
2.472,09-22-2026 21:27:43:991,-221762.743,-157457.981,-87543.826,-141513.096,-84652.762,-98595.78,-90326.707,-160630.633
2.476,09-22-2026 21:27:43:995,-221716.43,-157996.927,-129304.752,-143023.851,-125761.375,-139584.23,-132136.987,-155453.79
2.48,09-22-2026 21:27:43:999,-221938.07,-158952.33,-198036.277,-168404.525,-193419.301,-207044.388,-200949.738,-168395.897
2.484,09-22-2026 21:27:44:003,-222096.857,-158878.837,-188466.065,-179886.258,-184855.006,-198505.127,-191368.215,-180541.567
2.488,09-22-2026 21:27:44:007,-222004.231,-158045.922,-126694.694,-165383.016,-124048.516,-137876.378,-129523.844,-176758.489
2.492,09-22-2026 21:27:44:011,-221759.435,-157470.23,-87543.826,-141513.096,-84652.762,-98595.78,-90326.707,-160630.633
2.496,09-22-2026 21:27:44:015,-221709.814,-158021.424,-130174.772,-143023.851,-125761.375,-139584.23,-133008.034,-155453.79
2.5,09-22-2026 21:27:44:019,-221931.454,-158964.578,-198036.277,-168404.525,-193419.301,-207044.388,-200949.738,-168395.897
2.504,09-22-2026 21:27:44:023,-222090.777,-158888.359,-188499.905,-180218.495,-184904.493,-198566.013,-191400.759,-180726.684
2.508,09-22-2026 21:27:44:027,-221990.999,-158043.284,-126169.92,-165242.245,-123536.214,-137362.78,-128994.599,-176718.569
2.512,09-22-2026 21:27:44:031,-221749.6,-157484.044,-87542.887,-141402.5,-84640.826,-98571.998,-90320.36,-160485.704
2.516,09-22-2026 21:27:44:035,-221704.539,-158030.857,-129681.469,-142930.689,-126129.24,-139086.814,-132510.439,-155475.56
2.52,09-22-2026 21:27:44:039,-221923.408,-158987.779,-198156.664,-168298.622,-193547.913,-207186.187,-201069.319,-168501.934
2.524,09-22-2026 21:27:44:043,-222084.34,-158913.214,-188499.905,-180218.495,-184904.493,-198566.013,-191400.759,-180726.684
2.528,09-22-2026 21:27:44:047,-221987.781,-158068.139,-126169.92,-165242.245,-123536.214,-137362.78,-128994.599,-176718.569
2.532,09-22-2026 21:27:44:051,-221746.382,-157508.899,-87542.887,-141402.5,-84640.826,-98571.998,-90320.36,-160686.11
2.536,09-22-2026 21:27:44:055,-221701.321,-158055.712,-130559.356,-143236.326,-126129.24,-139948.832,-133389.399,-155475.56
2.54,09-22-2026 21:27:44:059,-221926.626,-159012.635,-199034.551,-168909.898,-194412.255,-208048.205,-201948.279,-168702.339
2.544,09-22-2026 21:27:44:063,-222087.559,-158925.642,-188499.905,-180218.495,-184904.493,-198566.013,-191400.759,-180927.09
2.548,09-22-2026 21:27:44:067,-221990.999,-158080.567,-126169.92,-165242.245,-122671.872,-137362.78,-128994.599,-176718.569
2.552,09-22-2026 21:27:44:071,-221746.382,-157508.899,-87542.887,-141402.5,-84640.826,-98571.998,-90320.36,-160485.704
2.556,09-22-2026 21:27:44:075,-221707.758,-158080.567,-130559.356,-143236.326,-126993.582,-140810.849,-133389.399,-155475.56
2.56,09-22-2026 21:27:44:079,-221936.282,-159037.49,-199034.551,-169215.535,-194412.255,-208048.205,-201948.279,-168902.745
2.564,09-22-2026 21:27:44:083,-222100.433,-158938.069,-188499.905,-180218.495,-184904.493,-198566.013,-191400.759,-180927.09
2.568,09-22-2026 21:27:44:087,-222003.874,-158092.994,-125292.033,-165242.245,-122671.872,-136500.762,-128115.639,-176718.569
2.572,09-22-2026 21:27:44:091,-221762.475,-157533.754,-87542.887,-141402.5,-84640.826,-98571.998,-90320.36,-160485.704
2.576,09-22-2026 21:27:44:095,-221720.633,-158105.422,-131437.243,-143236.326,-126993.582,-140810.849,-133389.399,-155475.56
2.58,09-22-2026 21:27:44:099,-221949.157,-159062.345,-199034.551,-169215.535,-194412.255,-208048.205,-201948.279,-168902.745
2.584,09-22-2026 21:27:44:103,-222110.089,-158950.497,-188499.905,-180218.495,-184040.151,-198566.013,-191400.759,-180927.09
2.588,09-22-2026 21:27:44:107,-222013.53,-158105.422,-125292.033,-164936.607,-122671.872,-136500.762,-128115.639,-176518.163
2.592,09-22-2026 21:27:44:111,-221772.131,-157558.609,-87542.887,-141402.5,-84640.826,-98571.998,-90320.36,-160485.704
2.596,09-22-2026 21:27:44:115,-221733.507,-158117.85,-131437.243,-143236.326,-126993.582,-140810.849,-134268.359,-155475.56
2.6,09-22-2026 21:27:44:119,-221955.594,-159062.345,-199034.551,-168909.898,-194412.255,-208048.205,-201948.279,-168702.339
2.604,09-22-2026 21:27:44:123,-222115.454,-158976.782,-187681.474,-179861.448,-184084.229,-197752.008,-190579.109,-180702.32
2.608,09-22-2026 21:27:44:127,-222014.871,-158131.618,-125876.933,-164854.487,-122383.982,-137064.339,-128697.321,-176403.544
2.612,09-22-2026 21:27:44:131,-221776.825,-157592.673,-88965.888,-141743.766,-86040,-99977.431,-91740.142,-160576.229
2.616,09-22-2026 21:27:44:135,-221739.944,-158143.867,-131885.708,-143544.602,-127455.235,-141278.761,-134713.606,-155886.654
2.62,09-22-2026 21:27:44:139,-221964.579,-159087.021,-197982.231,-169056.436,-193381.526,-207023.735,-200892.741,-168978.383
2.624,09-22-2026 21:27:44:143,-222125.512,-158989.031,-187681.474,-179861.448,-183239.02,-197752.008,-190579.109,-180702.32
2.628,09-22-2026 21:27:44:147,-222028.282,-158156.116,-125876.933,-165154.626,-123229.19,-137064.339,-128697.321,-176598.942
2.632,09-22-2026 21:27:44:151,-221793.589,-157617.171,-88965.888,-142043.906,-86040,-99977.431,-91740.142,-160771.628
2.636,09-22-2026 21:27:44:155,-221760.061,-158168.365,-131885.708,-143844.741,-127455.235,-141278.761,-134713.606,-155886.654
2.64,09-22-2026 21:27:44:159,-221981.343,-159099.27,-197982.231,-169056.436,-193381.526,-207023.735,-200892.741,-168782.984
2.644,09-22-2026 21:27:44:163,-222142.276,-159001.28,-186823.077,-179861.448,-183239.02,-196909.123,-189719.64,-180702.32
2.648,09-22-2026 21:27:44:167,-222041.693,-158156.116,-125018.537,-164854.487,-122383.982,-137064.339,-128697.321,-176403.544
2.652,09-22-2026 21:27:44:171,-221810.352,-157629.419,-88965.888,-141743.766,-86040,-99977.431,-91740.142,-160771.628
2.656,09-22-2026 21:27:44:175,-221776.825,-158192.862,-131885.708,-144144.88,-128300.444,-142121.645,-134713.606,-155886.654
2.66,09-22-2026 21:27:44:179,-222001.46,-159111.519,-197982.231,-169056.436,-193381.526,-207023.735,-200892.741,-168978.383
2.664,09-22-2026 21:27:44:183,-222155.687,-159013.529,-186823.077,-179861.448,-183239.02,-196909.123,-189719.64,-180702.32
2.668,09-22-2026 21:27:44:187,-222055.104,-158180.613,-125018.537,-164554.347,-122383.982,-137064.339,-127837.852,-176403.544
2.672,09-22-2026 21:27:44:191,-221817.058,-157653.917,-88965.888,-141743.766,-86040,-99977.431,-91740.142,-160576.229
2.676,09-22-2026 21:27:44:195,-221786.883,-158217.36,-132744.105,-144144.88,-128300.444,-142121.645,-135573.075,-156082.053
2.68,09-22-2026 21:27:44:199,-222011.518,-159136.016,-197982.231,-169056.436,-193381.526,-207023.735,-200892.741,-168978.383
2.684,09-22-2026 21:27:44:203,-222162.392,-159025.777,-185964.681,-179561.309,-182393.811,-196909.123,-189719.64,-180702.32
2.688,09-22-2026 21:27:44:207,-222061.81,-158192.862,-125018.537,-164554.347,-121538.773,-136221.455,-127837.852,-176208.145
2.692,09-22-2026 21:27:44:211,-221827.116,-157666.166,-89824.285,-141743.766,-86885.209,-100820.315,-92599.612,-160576.229
2.696,09-22-2026 21:27:44:215,-221796.941,-158229.608,-132744.105,-144144.88,-129145.653,-142964.529,-135573.075,-156082.053
2.7,09-22-2026 21:27:44:219,-222024.929,-159148.265,-197982.231,-169356.575,-193381.526,-207023.735,-200892.741,-169173.782
2.704,09-22-2026 21:27:44:223,-222178.173,-159040.083,-186071.791,-179599.575,-182494.93,-196209.022,-188963.525,-180709.786
2.708,09-22-2026 21:27:44:227,-222078.395,-158207.257,-124872.357,-164415.588,-122225.687,-136081.399,-127690.062,-176279.357
2.712,09-22-2026 21:27:44:231,-221846.652,-157700.319,-90022.679,-141788.47,-87068.628,-101006.952,-92798.229,-160676.543
2.716,09-22-2026 21:27:44:235,-221814.465,-158255.536,-133372.278,-144170.272,-128922.269,-142762.246,-136200.265,-156246.115
2.72,09-22-2026 21:27:44:239,-222039.771,-159184.922,-197971.681,-169476.917,-193376.877,-207065.398,-200877.81,-169344.773
2.724,09-22-2026 21:27:44:243,-222191.047,-159064.222,-186071.791,-179599.575,-182494.93,-196209.022,-188963.525,-180709.786
2.728,09-22-2026 21:27:44:247,-222088.05,-158231.396,-124872.357,-164415.588,-122225.687,-136081.399,-127690.062,-176279.357
2.732,09-22-2026 21:27:44:251,-221853.089,-157712.389,-90022.679,-141788.47,-87068.628,-101006.952,-92798.229,-160676.543
2.736,09-22-2026 21:27:44:255,-221827.34,-158279.676,-133372.278,-144467.997,-129759.342,-142762.246,-136200.265,-156246.115
2.74,09-22-2026 21:27:44:259,-222052.645,-159196.992,-197971.681,-169476.917,-193376.877,-207065.398,-200877.81,-169344.773
2.744,09-22-2026 21:27:44:263,-222207.141,-159076.292,-185221.798,-179599.575,-181657.857,-196209.022,-188963.525,-180709.786
2.748,09-22-2026 21:27:44:267,-222100.925,-158243.466,-124022.364,-164117.862,-121388.614,-135246.293,-126839.042,-176086.73
2.752,09-22-2026 21:27:44:271,-221872.401,-157736.529,-90022.679,-141788.47,-87068.628,-101006.952,-92798.229,-160676.543
2.756,09-22-2026 21:27:44:275,-221843.433,-158303.816,-133372.278,-144467.997,-129759.342,-143597.352,-136200.265,-156246.115
2.76,09-22-2026 21:27:44:279,-222071.957,-159209.062,-197971.681,-169476.917,-193376.877,-207065.398,-200877.81,-169537.401
2.764,09-22-2026 21:27:44:283,-222220.015,-159088.362,-185221.798,-179599.575,-181657.857,-196209.022,-188963.525,-180709.786
2.768,09-22-2026 21:27:44:287,-222113.8,-158255.536,-124022.364,-164117.862,-121388.614,-135246.293,-126839.042,-176279.357
2.772,09-22-2026 21:27:44:291,-221878.838,-157736.529,-90022.679,-141788.47,-87068.628,-101006.952,-92798.229,-160676.543
2.776,09-22-2026 21:27:44:295,-221853.089,-158315.886,-134222.27,-144467.997,-129759.342,-143597.352,-137051.286,-156246.115
2.78,09-22-2026 21:27:44:299,-222075.176,-159221.132,-197971.681,-169476.917,-193376.877,-207065.398,-200877.81,-169344.773
2.784,09-22-2026 21:27:44:303,-222223.234,-159100.432,-185221.798,-179599.575,-181657.857,-195373.916,-188112.505,-180709.786
2.788,09-22-2026 21:27:44:307,-222117.018,-158255.536,-124022.364,-164117.862,-120551.541,-135246.293,-126839.042,-175894.103
2.792,09-22-2026 21:27:44:311,-221885.275,-157760.669,-90022.679,-141788.47,-87068.628,-101006.952,-92798.229,-160291.289
2.796,09-22-2026 21:27:44:315,-221859.526,-158327.956,-134222.27,-144467.997,-129759.342,-143597.352,-136200.265,-156631.369
2.8,09-22-2026 21:27:44:319,-222088.05,-159233.202,-197971.681,-169476.917,-193376.877,-207065.398,-200877.81,-170500.537
2.804,09-22-2026 21:27:44:323,-222236.108,-159110.714,-185854.442,-179488.889,-181447.662,-196041.831,-188743.763,-181374.661
2.808,09-22-2026 21:27:44:327,-222128.194,-158268.634,-123605.728,-164215.942,-120974.436,-134839.178,-126417.801,-175818.375
2.812,09-22-2026 21:27:44:331,-221899.67,-157780.472,-89887.674,-141611.98,-86905.013,-100837.705,-92657.905,-159943.272
2.816,09-22-2026 21:27:44:335,-221877.452,-158354.063,-133980.514,-144666.57,-130343.527,-144189.584,-136805.461,-156569.812
2.82,09-22-2026 21:27:44:339,-222102.803,-159269.367,-198822.924,-169714.203,-194223.695,-207942.347,-201728.338,-170460.528
2.824,09-22-2026 21:27:44:343,-222255.152,-159147.326,-185854.442,-179794.348,-182299.397,-196041.831,-188743.763,-181573.1
2.828,09-22-2026 21:27:44:347,-222147.238,-158293.043,-123605.728,-164215.942,-120974.436,-134839.178,-126417.801,-176016.814
2.832,09-22-2026 21:27:44:351,-221918.714,-157804.88,-90752.24,-141917.439,-87756.749,-101687.741,-93523.543,-160141.711
2.836,09-22-2026 21:27:44:355,-221896.496,-158390.675,-135709.645,-145277.488,-131195.263,-145039.62,-138536.738,-156768.251
2.84,09-22-2026 21:27:44:359,-222128.194,-159305.979,-199687.49,-170630.58,-195075.431,-208792.384,-202593.977,-171055.844
2.844,09-22-2026 21:27:44:363,-222274.196,-159159.53,-185854.442,-180099.807,-182299.397,-196041.831,-188743.763,-181771.538
2.848,09-22-2026 21:27:44:367,-222159.934,-158293.043,-122741.163,-163910.483,-119270.965,-133989.141,-125552.163,-175818.375
2.852,09-22-2026 21:27:44:371,-221928.236,-157804.88,-89887.674,-141611.98,-86905.013,-100837.705,-92657.905,-159943.272
2.856,09-22-2026 21:27:44:375,-221906.018,-158402.879,-135709.645,-144972.029,-131195.263,-145039.62,-138536.738,-156569.812
2.86,09-22-2026 21:27:44:379,-222137.716,-159318.183,-199687.49,-170630.58,-195075.431,-208792.384,-202593.977,-171055.844
2.864,09-22-2026 21:27:44:383,-222280.544,-159159.53,-184989.877,-180099.807,-181447.662,-196041.831,-188743.763,-181771.538
2.868,09-22-2026 21:27:44:387,-222166.282,-158305.247,-121876.597,-163910.483,-119270.965,-133139.105,-124686.524,-175818.375
2.872,09-22-2026 21:27:44:391,-221928.236,-157817.085,-89887.674,-141306.521,-86905.013,-100837.705,-92657.905,-159744.833
2.876,09-22-2026 21:27:44:395,-221906.018,-158415.083,-135709.645,-144972.029,-132046.998,-145039.62,-138536.738,-156569.812
2.88,09-22-2026 21:27:44:399,-222134.542,-159318.183,-199687.49,-170630.58,-195075.431,-208792.384,-202593.977,-170857.405
2.884,09-22-2026 21:27:44:403,-222277.37,-159171.734,-184989.877,-180099.807,-181447.662,-195191.794,-187878.124,-181771.538
2.888,09-22-2026 21:27:44:407,-222159.934,-158305.247,-121876.597,-163605.024,-118419.229,-133139.105,-124686.524,-175619.936
2.892,09-22-2026 21:27:44:411,-221925.062,-157829.289,-89887.674,-141306.521,-86905.013,-100837.705,-92657.905,-159546.394
2.896,09-22-2026 21:27:44:415,-221902.844,-158427.287,-135709.645,-144972.029,-131195.263,-145039.62,-138536.738,-156569.812
2.9,09-22-2026 21:27:44:419,-222131.368,-159330.387,-199687.49,-170630.58,-195075.431,-208792.384,-202593.977,-170857.405
2.904,09-22-2026 21:27:44:423,-222272.855,-159173.299,-184828.005,-179850.272,-181308.097,-195077.13,-187720.723,-181681.148
2.908,09-22-2026 21:27:44:427,-222156.045,-158313.159,-121221.959,-163582.762,-118628.844,-132505.567,-124029.83,-175562.805
2.912,09-22-2026 21:27:44:431,-221922.424,-157840.688,-89854.594,-141176.568,-86859.907,-100791.213,-92620.622,-159576.167
2.916,09-22-2026 21:27:44:435,-221901.458,-158446.42,-136034.326,-144859.778,-132366.762,-145362.737,-138861.956,-156615.678
2.92,09-22-2026 21:27:44:439,-222129.088,-159342.904,-199640.372,-170642.247,-195046.016,-208791.445,-202552.849,-171023.389
2.924,09-22-2026 21:27:44:443,-222269.86,-159185.414,-184828.005,-179850.272,-181308.097,-195077.13,-187720.723,-181681.148
2.928,09-22-2026 21:27:44:447,-222150.054,-158313.159,-121221.959,-163275.828,-117770.224,-132505.567,-124029.83,-175365.439
2.932,09-22-2026 21:27:44:451,-221916.434,-157840.688,-89854.594,-140869.634,-86859.907,-100791.213,-92620.622,-159378.801
2.936,09-22-2026 21:27:44:455,-221898.463,-158458.535,-136905.642,-145166.712,-133225.382,-146219.882,-139734.434,-156615.678
2.94,09-22-2026 21:27:44:459,-222132.083,-159367.133,-200511.688,-170949.181,-195904.636,-209648.589,-203425.327,-171220.755
2.944,09-22-2026 21:27:44:463,-222269.86,-159185.414,-184828.005,-179850.272,-180449.477,-195077.13,-187720.723,-181681.148
2.948,09-22-2026 21:27:44:467,-222150.054,-158313.159,-120350.643,-163275.828,-117770.224,-131648.422,-123157.352,-175365.439
2.952,09-22-2026 21:27:44:471,-221913.439,-157852.803,-89854.594,-140869.634,-86859.907,-100791.213,-92620.622,-159378.801
2.956,09-22-2026 21:27:44:475,-221895.468,-158470.65,-136905.642,-145166.712,-133225.382,-146219.882,-139734.434,-156615.678
2.96,09-22-2026 21:27:44:479,-222126.093,-159367.133,-200511.688,-170949.181,-195904.636,-209648.589,-203425.327,-171220.755
2.964,09-22-2026 21:27:44:483,-222269.86,-159197.528,-184828.005,-179850.272,-180449.477,-195077.13,-187720.723,-181681.148
2.968,09-22-2026 21:27:44:487,-222144.064,-158325.274,-120350.643,-162968.893,-117770.224,-131648.422,-123157.352,-175365.439
2.972,09-22-2026 21:27:44:491,-221913.439,-157864.917,-89854.594,-140869.634,-86859.907,-100791.213,-92620.622,-159378.801
2.976,09-22-2026 21:27:44:495,-221895.468,-158482.764,-136905.642,-145166.712,-133225.382,-147077.027,-139734.434,-156615.678
2.98,09-22-2026 21:27:44:499,-222126.093,-159379.248,-200511.688,-170949.181,-195904.636,-209648.589,-203425.327,-171220.755
2.984,09-22-2026 21:27:44:503,-222266.864,-159197.528,-183956.69,-179850.272,-180449.477,-194219.985,-186848.245,-181681.148
2.988,09-22-2026 21:27:44:507,-222144.064,-158325.274,-119479.328,-162968.893,-116911.604,-131648.422,-122284.874,-175168.073
2.992,09-22-2026 21:27:44:511,-221910.444,-157864.917,-89854.594,-140869.634,-86859.907,-100791.213,-92620.622,-159181.435
2.996,09-22-2026 21:27:44:515,-221895.468,-158494.879,-137776.957,-145473.647,-133225.382,-147077.027,-140606.912,-156615.678
3,09-22-2026 21:27:44:519,-222129.088,-159379.248,-200511.688,-171256.116,-195904.636,-209648.589,-203425.327,-171418.121
3.004,09-22-2026 21:27:44:523,-222268.742,-159204.591,-183814.533,-179813.615,-180320.866,-194105.097,-186706.893,-181653.7
3.008,09-22-2026 21:27:44:527,-222148.043,-158322.234,-119797.304,-162787.174,-116366.177,-131112.561,-122608.08,-175256.452
3.012,09-22-2026 21:27:44:531,-221916.702,-157874.841,-89981.06,-140807.586,-86981.59,-100910.661,-92753.839,-159063.418
3.016,09-22-2026 21:27:44:535,-221903.291,-158508.648,-137336.27,-145141.589,-133651.228,-147507.879,-140169.399,-156664.45
3.02,09-22-2026 21:27:44:539,-222137.984,-159403.433,-200476.551,-171145.609,-195877.411,-209637.503,-203390.146,-171258.172
3.024,09-22-2026 21:27:44:543,-222282.153,-159229.447,-183814.533,-179813.615,-180320.866,-194105.097,-186706.893,-181853.614
3.028,09-22-2026 21:27:44:547,-222158.101,-158334.662,-118920.355,-162787.174,-116366.177,-131112.561,-121730.014,-175056.538
3.032,09-22-2026 21:27:44:551,-221930.113,-157899.697,-89981.06,-140807.586,-86981.59,-100910.661,-92753.839,-159263.332
3.036,09-22-2026 21:27:44:555,-221916.702,-158533.503,-139090.167,-145760.732,-134515.48,-148370.79,-141047.465,-156864.364
3.04,09-22-2026 21:27:44:559,-222154.748,-159428.288,-201353.499,-171455.18,-196741.664,-210500.414,-204268.212,-171658
3.044,09-22-2026 21:27:44:563,-222295.564,-159241.874,-183814.533,-180123.187,-180320.866,-194105.097,-186706.893,-182053.528
3.048,09-22-2026 21:27:44:567,-222174.865,-158359.517,-118920.355,-162787.174,-116366.177,-130249.65,-121730.014,-175256.452
3.052,09-22-2026 21:27:44:571,-221946.877,-157924.552,-89981.06,-140807.586,-86981.59,-100910.661,-92753.839,-159263.332
3.056,09-22-2026 21:27:44:575,-221940.171,-158558.358,-139090.167,-145760.732,-135379.733,-148370.79,-141925.531,-157064.278
3.06,09-22-2026 21:27:44:579,-222178.217,-159453.143,-201353.499,-171764.752,-196741.664,-210500.414,-204268.212,-171857.914
3.064,09-22-2026 21:27:44:583,-222319.033,-159254.302,-183814.533,-180123.187,-180320.866,-194105.097,-186706.893,-182053.528
3.068,09-22-2026 21:27:44:587,-222191.628,-158371.944,-118920.355,-162787.174,-116366.177,-130249.65,-121730.014,-175256.452
3.072,09-22-2026 21:27:44:591,-221963.641,-157936.979,-89981.06,-140807.586,-86981.59,-100910.661,-92753.839,-159263.332
3.076,09-22-2026 21:27:44:595,-221953.582,-158570.785,-139090.167,-145760.732,-135379.733,-148370.79,-141925.531,-157064.278
3.08,09-22-2026 21:27:44:599,-222188.276,-159453.143,-201353.499,-171764.752,-196741.664,-210500.414,-204268.212,-172057.828
3.084,09-22-2026 21:27:44:603,-222325.739,-159254.302,-183814.533,-180123.187,-180320.866,-194105.097,-186706.893,-182053.528
3.088,09-22-2026 21:27:44:607,-222201.687,-158371.944,-118043.407,-162477.602,-115501.924,-130249.65,-120851.948,-175256.452
3.092,09-22-2026 21:27:44:611,-221970.346,-157936.979,-89981.06,-140807.586,-86981.59,-100910.661,-92753.839,-159063.418
3.096,09-22-2026 21:27:44:615,-221960.288,-158583.213,-139090.167,-145760.732,-135379.733,-148370.79,-141925.531,-156864.364
3.1,09-22-2026 21:27:44:619,-222194.981,-159453.143,-201353.499,-171764.752,-196741.664,-210500.414,-204268.212,-171857.914
3.104,09-22-2026 21:27:44:623,-222331.282,-159258.012,-183353.729,-179895.869,-179891.623,-193689.802,-186250.515,-182021.61
3.108,09-22-2026 21:27:44:627,-222201.463,-158360.59,-117575.898,-162268.122,-115035.801,-129791.35,-121260.404,-174910
3.112,09-22-2026 21:27:44:631,-221974.28,-157942.612,-90387.728,-140620.01,-87363.984,-101296.094,-93156.572,-159106.423
3.116,09-22-2026 21:27:44:635,-221962.478,-158581.872,-139501.842,-145877.408,-134924.92,-148788.187,-142338.278,-156933.431
3.12,09-22-2026 21:27:44:639,-222198.513,-159454.707,-200894.484,-171545.884,-196321.764,-210096.161,-203815.41,-171749.284
3.124,09-22-2026 21:27:44:643,-222331.282,-159258.012,-182476.691,-179586.611,-179026.878,-192826.309,-185372.27,-181824.065
3.128,09-22-2026 21:27:44:647,-222201.463,-158360.59,-117575.898,-161958.863,-115035.801,-128927.857,-120382.159,-174712.455
3.132,09-22-2026 21:27:44:651,-221971.33,-157942.612,-90387.728,-140620.01,-87363.984,-101296.094,-93156.572,-158908.878
3.136,09-22-2026 21:27:44:655,-221962.478,-158594.165,-139501.842,-145877.408,-135789.664,-149651.679,-142338.278,-156933.431
3.14,09-22-2026 21:27:44:659,-222195.562,-159467.001,-201771.522,-171855.142,-197186.508,-210959.653,-204693.655,-171946.829
3.144,09-22-2026 21:27:44:663,-222331.282,-159258.012,-182476.691,-179895.869,-179026.878,-192826.309,-185372.27,-181824.065
3.148,09-22-2026 21:27:44:667,-222198.513,-158372.883,-117575.898,-162268.122,-115035.801,-128927.857,-120382.159,-174712.455
3.152,09-22-2026 21:27:44:671,-221971.33,-157954.905,-90387.728,-140620.01,-87363.984,-101296.094,-93156.572,-158908.878
3.156,09-22-2026 21:27:44:675,-221965.429,-158606.459,-140378.879,-146186.667,-135789.664,-149651.679,-143216.523,-157130.975
3.16,09-22-2026 21:27:44:679,-222198.513,-159479.294,-201771.522,-171855.142,-197186.508,-210959.653,-204693.655,-172144.374
3.164,09-22-2026 21:27:44:683,-222334.233,-159270.306,-182476.691,-179895.869,-179026.878,-192826.309,-185372.27,-182021.61
3.168,09-22-2026 21:27:44:687,-222204.414,-158385.176,-117575.898,-161958.863,-115035.801,-128927.857,-120382.159,-174910
3.172,09-22-2026 21:27:44:691,-221974.28,-157979.492,-90387.728,-140620.01,-87363.984,-101296.094,-93156.572,-159106.423
3.176,09-22-2026 21:27:44:695,-221968.379,-158631.046,-140378.879,-146186.667,-136654.408,-150515.172,-143216.523,-157130.975
3.18,09-22-2026 21:27:44:699,-222204.414,-159503.881,-201771.522,-172164.401,-197186.508,-210959.653,-204693.655,-172341.919
3.184,09-22-2026 21:27:44:703,-222334.233,-159282.599,-182476.691,-179895.869,-179026.878,-192826.309,-185372.27,-182021.61
3.188,09-22-2026 21:27:44:707,-222204.414,-158397.47,-117575.898,-161958.863,-114171.057,-128927.857,-120382.159,-174910
3.192,09-22-2026 21:27:44:711,-221974.28,-157991.786,-90387.728,-140620.01,-87363.984,-101296.094,-93156.572,-159106.423
3.196,09-22-2026 21:27:44:715,-221968.379,-158643.339,-141255.917,-146495.926,-136654.408,-150515.172,-144094.767,-157130.975
3.2,09-22-2026 21:27:44:719,-222204.414,-159503.881,-201771.522,-172473.66,-197186.508,-210959.653,-204693.655,-172341.919
3.204,09-22-2026 21:27:44:723,-222335.842,-159291.629,-182668.961,-180062.211,-179229.072,-193040.305,-185561.411,-182173.87
3.208,09-22-2026 21:27:44:727,-222201.731,-158393.402,-116857.602,-162018.9,-114329.665,-128224.716,-119666.233,-174843.213
3.212,09-22-2026 21:27:44:731,-221977.096,-158001.218,-91410.543,-140864.672,-88369.902,-102298.481,-94186.764,-158993.144
3.216,09-22-2026 21:27:44:735,-221970.391,-158659.075,-141427.176,-146464.321,-136828.126,-150694.12,-144267.099,-157408.137
3.22,09-22-2026 21:27:44:739,-222208.437,-159519.349,-201973.626,-172596.013,-197400.906,-211188.669,-204890.663,-172465.703
3.224,09-22-2026 21:27:44:743,-222342.547,-159304.28,-182668.961,-180373.303,-179229.072,-193040.305,-185561.411,-182371.996
3.228,09-22-2026 21:27:44:747,-222211.79,-158418.704,-116857.602,-162018.9,-114329.665,-128224.716,-119666.233,-175041.339
3.232,09-22-2026 21:27:44:751,-221987.155,-158026.52,-91410.543,-140864.672,-88369.902,-102298.481,-94186.764,-159191.27
3.236,09-22-2026 21:27:44:755,-221987.155,-158709.679,-142304.661,-147086.504,-138558.777,-152422.536,-145145.702,-157606.263
3.24,09-22-2026 21:27:44:759,-222228.554,-159569.953,-202851.111,-173218.196,-198266.232,-212052.877,-205769.265,-173060.08
3.244,09-22-2026 21:27:44:763,-222362.664,-159342.233,-182668.961,-180373.303,-178363.747,-193040.305,-185561.411,-182570.122
3.248,09-22-2026 21:27:44:767,-222228.554,-158431.355,-116857.602,-162018.9,-113464.339,-128224.716,-119666.233,-175041.339
3.252,09-22-2026 21:27:44:771,-222003.919,-158051.823,-91410.543,-140864.672,-88369.902,-102298.481,-94186.764,-159191.27
3.256,09-22-2026 21:27:44:775,-222003.919,-158722.33,-142304.661,-147086.504,-138558.777,-151558.328,-145145.702,-157606.263
3.26,09-22-2026 21:27:44:779,-222245.317,-159582.604,-202851.111,-173218.196,-198266.232,-212052.877,-205769.265,-173060.08
3.264,09-22-2026 21:27:44:783,-222376.075,-159354.885,-182668.961,-180373.303,-178363.747,-193040.305,-185561.411,-182570.122
3.268,09-22-2026 21:27:44:787,-222245.317,-158456.657,-115980.117,-162018.9,-113464.339,-128224.716,-119666.233,-175041.339
3.272,09-22-2026 21:27:44:791,-222020.682,-158064.474,-91410.543,-140864.672,-88369.902,-102298.481,-94186.764,-159191.27
3.276,09-22-2026 21:27:44:795,-222027.388,-158747.632,-143182.146,-147086.504,-138558.777,-152422.536,-145145.702,-157804.389
3.28,09-22-2026 21:27:44:799,-222265.434,-159595.255,-202851.111,-173218.196,-198266.232,-212052.877,-205769.265,-173060.08
3.284,09-22-2026 21:27:44:803,-222396.192,-159367.536,-181791.476,-180373.303,-178363.747,-193040.305,-185561.411,-182570.122
3.288,09-22-2026 21:27:44:807,-222262.081,-158456.657,-115980.117,-162018.9,-113464.339,-127360.508,-118787.631,-175041.339
3.292,09-22-2026 21:27:44:811,-222040.799,-158077.125,-91410.543,-140864.672,-88369.902,-102298.481,-94186.764,-159191.27
3.296,09-22-2026 21:27:44:815,-222044.152,-158760.283,-143182.146,-147086.504,-138558.777,-152422.536,-146024.304,-157804.389
3.3,09-22-2026 21:27:44:819,-222285.551,-159607.906,-202851.111,-173218.196,-198266.232,-212052.877,-205769.265,-173258.206
3.304,09-22-2026 21:27:44:823,-222418.052,-159382.064,-182518.221,-180581.397,-178223.512,-192918.219,-185406.916,-182719.521
3.308,09-22-2026 21:27:44:827,-222283.807,-158480.842,-115700.274,-161854.212,-113179.936,-127078.742,-118497.237,-175050.145
3.312,09-22-2026 21:27:44:831,-222060.066,-158107.478,-91962.319,-140942.188,-88897,-102822.093,-94726.693,-159121.443
3.316,09-22-2026 21:27:44:835,-222060.066,-158776.958,-142954.963,-147184.583,-139197.366,-153068.009,-145789.343,-157941.539
3.32,09-22-2026 21:27:44:839,-222297.576,-159626.682,-203618.625,-173402.643,-199037.456,-211977.015,-206536.288,-173280.29
3.324,09-22-2026 21:27:44:843,-222431.82,-159394.939,-182518.221,-180581.397,-178223.512,-192918.219,-185406.916,-182719.521
3.328,09-22-2026 21:27:44:847,-222294.134,-158493.717,-115700.274,-161854.212,-113179.936,-127078.742,-118497.237,-175050.145
3.332,09-22-2026 21:27:44:851,-222073.835,-158120.353,-91962.319,-140942.188,-88897,-102822.093,-94726.693,-159121.443
3.336,09-22-2026 21:27:44:855,-222080.719,-158815.582,-143834.146,-147808.823,-140064.614,-153934.318,-146669.733,-158138.19
3.34,09-22-2026 21:27:44:859,-222325.113,-159665.306,-203618.625,-173714.763,-199037.456,-212843.324,-206536.288,-173673.591
3.344,09-22-2026 21:27:44:863,-222455.916,-159420.688,-181639.037,-180581.397,-178223.512,-192051.91,-184526.525,-182916.171
3.348,09-22-2026 21:27:44:867,-222318.229,-158519.466,-114821.09,-161854.212,-112312.688,-127078.742,-117616.846,-174853.495
3.352,09-22-2026 21:27:44:871,-222097.93,-158158.977,-91962.319,-140942.188,-88897,-102822.093,-94726.693,-159121.443
3.356,09-22-2026 21:27:44:875,-222104.814,-158854.205,-144713.33,-147808.823,-140064.614,-153934.318,-147550.124,-158138.19
3.36,09-22-2026 21:27:44:879,-222345.766,-159691.055,-203618.625,-174026.883,-199037.456,-212843.324,-206536.288,-173673.591
3.364,09-22-2026 21:27:44:883,-222476.569,-159446.437,-181639.037,-180581.397,-178223.512,-192051.91,-184526.525,-182916.171
3.368,09-22-2026 21:27:44:887,-222338.882,-158545.215,-114821.09,-161542.092,-112312.688,-126212.433,-117616.846,-175050.145
3.372,09-22-2026 21:27:44:891,-222118.583,-158184.726,-91962.319,-140942.188,-88897,-102822.093,-94726.693,-159121.443
3.376,09-22-2026 21:27:44:895,-222128.909,-158879.955,-144713.33,-147808.823,-140064.614,-153934.318,-147550.124,-158138.19
3.38,09-22-2026 21:27:44:899,-222369.861,-159729.679,-203618.625,-174026.883,-199037.456,-212843.324,-206536.288,-173673.591
3.384,09-22-2026 21:27:44:903,-222497.222,-159472.187,-181639.037,-180581.397,-178223.512,-192051.91,-184526.525,-182916.171
3.388,09-22-2026 21:27:44:907,-222359.535,-158558.09,-114821.09,-161542.092,-112312.688,-126212.433,-117616.846,-174853.495
3.392,09-22-2026 21:27:44:911,-222139.236,-158210.475,-91962.319,-140942.188,-88897,-102822.093,-94726.693,-159121.443
3.396,09-22-2026 21:27:44:915,-222146.12,-158905.704,-144713.33,-147808.823,-140064.614,-153934.318,-147550.124,-158138.19
3.4,09-22-2026 21:27:44:919,-222387.072,-159742.553,-203618.625,-174026.883,-199037.456,-212843.324,-206536.288,-173870.242
3.404,09-22-2026 21:27:44:923,-222518.009,-159490.56,-181566.931,-180655.605,-178171.254,-192011.811,-184450.753,-183110.676
3.408,09-22-2026 21:27:44:927,-222380.545,-158579.681,-114436.417,-161452.685,-111930.875,-125832.588,-117228.507,-174907.675
3.412,09-22-2026 21:27:44:931,-222159.263,-158238.102,-92354.011,-140675.755,-89269.693,-103192.327,-95115.926,-159087.602
3.416,09-22-2026 21:27:44:935,-222165.969,-158933.912,-145351.785,-147916.201,-140693.145,-154568.303,-148186.12,-158306.364
3.42,09-22-2026 21:27:44:939,-222407.368,-159768.884,-204532.633,-174044.764,-199960.852,-212910.514,-207447.837,-173931.128
3.424,09-22-2026 21:27:44:943,-222538.125,-159515.862,-181566.931,-180655.605,-178171.254,-192011.811,-184450.753,-183110.676
3.428,09-22-2026 21:27:44:947,-222393.956,-158592.332,-114436.417,-161452.685,-111059.291,-125832.588,-117228.507,-174907.675
3.432,09-22-2026 21:27:44:951,-222176.027,-158250.753,-92354.011,-140675.755,-89269.693,-103192.327,-95115.926,-159087.602
3.436,09-22-2026 21:27:44:955,-222186.085,-158959.214,-146235.081,-148231.002,-141564.729,-155439.082,-149070.623,-158306.364
3.44,09-22-2026 21:27:44:959,-222427.484,-159794.186,-204532.633,-174359.566,-199960.852,-213781.293,-207447.837,-174126.437
3.444,09-22-2026 21:27:44:963,-222551.536,-159528.513,-180683.634,-180655.605,-177299.67,-191141.032,-183566.249,-183110.676
3.448,09-22-2026 21:27:44:967,-222410.72,-158604.984,-113553.12,-161452.685,-111059.291,-124961.808,-116344.004,-174712.366
3.452,09-22-2026 21:27:44:971,-222186.085,-158263.404,-92354.011,-140675.755,-89269.693,-103192.327,-95115.926,-159087.602
3.456,09-22-2026 21:27:44:975,-222199.496,-158984.516,-146235.081,-148231.002,-141564.729,-155439.082,-149070.623,-158306.364
3.46,09-22-2026 21:27:44:979,-222440.895,-159806.837,-204532.633,-174674.368,-199960.852,-213781.293,-207447.837,-174126.437
3.464,09-22-2026 21:27:44:983,-222568.3,-159541.164,-180683.634,-180655.605,-177299.67,-191141.032,-183566.249,-183110.676
3.468,09-22-2026 21:27:44:987,-222424.131,-158617.635,-112669.824,-161137.883,-110187.708,-124961.808,-115459.501,-174517.056
3.472,09-22-2026 21:27:44:991,-222202.849,-158288.706,-92354.011,-140675.755,-89269.693,-103192.327,-95115.926,-158892.293
3.476,09-22-2026 21:27:44:995,-222216.26,-158997.167,-146235.081,-148231.002,-142436.313,-156309.862,-149070.623,-158306.364
3.48,09-22-2026 21:27:44:999,-222461.012,-159832.139,-204532.633,-174674.368,-199960.852,-213781.293,-207447.837,-174321.747
3.484,09-22-2026 21:27:45:003,-222585.064,-159553.815,-180683.634,-180655.605,-177299.67,-191141.032,-183566.249,-183110.676
3.488,09-22-2026 21:27:45:007,-222440.895,-158630.286,-112669.824,-160823.081,-110187.708,-124091.029,-115459.501,-174517.056
3.492,09-22-2026 21:27:45:011,-222219.613,-158301.357,-92354.011,-140675.755,-89269.693,-103192.327,-95115.926,-158892.293
3.496,09-22-2026 21:27:45:015,-222236.377,-159035.12,-147118.377,-148545.804,-143307.897,-156309.862,-149955.127,-158501.674
3.5,09-22-2026 21:27:45:019,-222477.776,-159844.79,-204532.633,-174989.17,-199960.852,-213781.293,-207447.837,-174321.747
3.504,09-22-2026 21:27:45:023,-222599.369,-159575.809,-180380.187,-180674.962,-176989.383,-190832.533,-183263.83,-183148.585
3.508,09-22-2026 21:27:45:027,-222454.798,-158650.447,-112710.594,-160800.193,-110204.427,-124106.094,-115497.856,-174588.403
3.512,09-22-2026 21:27:45:031,-222231.057,-158329.655,-92497.598,-140609.952,-89388.336,-103308.243,-95256.072,-158829.887
3.516,09-22-2026 21:27:45:035,-222248.268,-159045.268,-146984.803,-148496.765,-142295.899,-156169.448,-149820.882,-158440.788
3.52,09-22-2026 21:27:45:039,-222489.22,-159859.587,-204108.486,-174680.984,-199540.147,-213363.539,-207025.925,-174199.304
3.524,09-22-2026 21:27:45:043,-222613.138,-159588.147,-180380.187,-180674.962,-176122.046,-190832.533,-183263.83,-183148.585
3.528,09-22-2026 21:27:45:047,-222465.124,-158650.447,-111831.768,-160484.721,-109337.09,-124106.094,-114617.779,-174393.853
3.532,09-22-2026 21:27:45:051,-222244.826,-158341.993,-92497.598,-140609.952,-89388.336,-103308.243,-95256.072,-158829.887
3.536,09-22-2026 21:27:45:055,-222265.479,-159057.606,-147863.629,-148496.765,-143163.236,-157036.025,-149820.882,-158440.788
3.54,09-22-2026 21:27:45:059,-222509.873,-159871.925,-204108.486,-174680.984,-199540.147,-213363.539,-207025.925,-174393.853
3.544,09-22-2026 21:27:45:063,-222630.349,-159588.147,-179501.361,-180674.962,-176122.046,-189965.956,-182383.753,-183148.585
3.548,09-22-2026 21:27:45:067,-222482.335,-158675.123,-112710.594,-160800.193,-110204.427,-124106.094,-115497.856,-174393.853
3.552,09-22-2026 21:27:45:071,-222262.036,-158366.669,-92497.598,-140609.952,-89388.336,-103308.243,-95256.072,-158829.887
3.556,09-22-2026 21:27:45:075,-222279.247,-159082.283,-146984.803,-148496.765,-143163.236,-156169.448,-149820.882,-158635.337
3.56,09-22-2026 21:27:45:079,-222516.757,-159884.263,-203229.66,-174365.511,-198672.81,-212496.962,-206145.848,-174199.304
3.564,09-22-2026 21:27:45:083,-222633.791,-159612.824,-179501.361,-180359.489,-176122.046,-189965.956,-182383.753,-182954.035
3.568,09-22-2026 21:27:45:087,-222489.22,-158699.8,-113589.42,-160800.193,-110204.427,-124972.671,-116377.934,-174393.853
3.572,09-22-2026 21:27:45:091,-222275.805,-158379.007,-93376.424,-140925.424,-90255.674,-104174.82,-96136.149,-159024.436
3.576,09-22-2026 21:27:45:095,-222299.9,-159094.621,-146984.803,-148812.237,-142295.899,-156169.448,-149820.882,-158635.337
3.58,09-22-2026 21:27:45:099,-222544.294,-159884.263,-202350.834,-174050.039,-197805.473,-211630.385,-205265.77,-174004.754
3.584,09-22-2026 21:27:45:103,-222664.77,-159625.162,-179501.361,-180044.017,-176122.046,-189965.956,-182383.753,-182564.936
3.588,09-22-2026 21:27:45:107,-222533.968,-158749.152,-115347.071,-161115.666,-112806.438,-126705.826,-118138.089,-174588.403
3.592,09-22-2026 21:27:45:111,-222330.88,-158428.36,-95134.076,-141556.369,-91990.348,-105907.974,-97896.304,-159608.085
3.596,09-22-2026 21:27:45:115,-222354.975,-159119.297,-146105.977,-148812.237,-141428.562,-155302.871,-148940.804,-159024.436
3.6,09-22-2026 21:27:45:119,-222585.6,-159896.601,-200593.183,-173419.094,-196070.799,-209897.23,-203505.615,-173810.205
3.604,09-22-2026 21:27:45:123,-222699.371,-159658.689,-179282.94,-179556.168,-175774.521,-189633.094,-182166.941,-182327.829
3.608,09-22-2026 21:27:45:127,-222567.138,-158793.275,-117842.107,-162049.387,-115177.377,-129093.886,-120639.204,-174891.984
3.612,09-22-2026 21:27:45:131,-222370.085,-158483.435,-97361.83,-143107.625,-94230.216,-108166.752,-100129.959,-160564.382
3.616,09-22-2026 21:27:45:135,-222385.642,-159103.114,-143632.086,-148847.553,-139116.989,-153010.61,-145706.06,-159294.848
3.62,09-22-2026 21:27:45:139,-222595.659,-159840.32,-193694.987,-170946.276,-189240.553,-203086.251,-196599.373,-172352.916
3.624,09-22-2026 21:27:45:143,-222694.185,-159658.689,-177765.882,-177834.189,-174278.295,-188138.299,-181407.339,-180876.932
3.628,09-22-2026 21:27:45:147,-222577.509,-158932.168,-127702.982,-164058.362,-124154.732,-138810.055,-130514.026,-175617.433
3.632,09-22-2026 21:27:45:151,-222416.755,-158643.697,-108739.762,-148560.557,-105451.909,-119377.717,-111523.984,-164191.623
3.636,09-22-2026 21:27:45:155,-222437.498,-159092.43,-139839.442,-150856.528,-135376.425,-149273.622,-142667.653,-161652.554
3.64,09-22-2026 21:27:45:159,-222593.066,-159637.321,-173973.238,-165206.348,-169789.618,-183653.913,-176849.729,-169451.123
3.644,09-22-2026 21:27:45:163,-222637.143,-159530.48,-166387.95,-170085.287,-162308.489,-176179.937,-169253.712,-175254.709
3.648,09-22-2026 21:27:45:167,-222515.282,-158996.273,-133012.683,-161762.391,-129391.522,-144041.839,-135831.238,-172715.64
3.652,09-22-2026 21:27:45:171,-222388.234,-158771.906,-120117.694,-151430.521,-116673.603,-130588.681,-122918.01,-165098.434
3.656,09-22-2026 21:27:45:175,-222440.09,-159145.851,-143632.086,-153726.492,-139865.102,-153758.008,-146465.662,-163466.175
3.66,09-22-2026 21:27:45:179,-222603.437,-159637.321,-173214.71,-166067.337,-169041.505,-182906.515,-176090.127,-170357.933
3.664,09-22-2026 21:27:45:183,-222644.922,-159541.164,-165629.422,-170372.283,-162308.489,-176179.937,-168494.111,-175617.433
3.668,09-22-2026 21:27:45:187,-222530.839,-159049.694,-135288.27,-162623.38,-132383.973,-146284.031,-138110.043,-173259.726
3.672,09-22-2026 21:27:45:191,-222421.941,-158825.327,-122393.28,-152865.503,-118917.941,-132830.874,-125196.815,-166186.606
3.676,09-22-2026 21:27:45:195,-222476.39,-159177.903,-143632.086,-154587.481,-139865.102,-153758.008,-146465.662,-164372.985
3.68,09-22-2026 21:27:45:199,-222637.143,-159648.005,-170939.123,-165780.341,-166797.166,-180664.322,-173811.322,-170539.295
3.684,09-22-2026 21:27:45:203,-222678.628,-159573.216,-165629.422,-170085.287,-161560.376,-175432.539,-168494.111,-175617.433
3.688,09-22-2026 21:27:45:207,-222572.323,-159113.799,-137563.856,-163484.369,-134628.312,-148526.224,-140388.848,-173803.812
3.692,09-22-2026 21:27:45:211,-222471.204,-158900.116,-124668.866,-154300.485,-121910.393,-135820.465,-127475.62,-167093.416
3.696,09-22-2026 21:27:45:215,-222530.839,-159220.64,-144390.615,-155735.467,-139865.102,-153758.008,-147225.263,-165279.796
3.7,09-22-2026 21:27:45:219,-222683.814,-159669.374,-170180.594,-166067.337,-166049.053,-179916.925,-173051.721,-170902.019
3.704,09-22-2026 21:27:45:223,-222727.4,-159620.691,-166180.079,-170502.415,-162486.319,-176644.227,-169064.572,-175881.899
3.708,09-22-2026 21:27:45:227,-222629.052,-159189.929,-140743.883,-164764.722,-137464.346,-151710.23,-143599.05,-174709.102
3.712,09-22-2026 21:27:45:231,-222540.539,-158971.597,-127715.588,-156158.183,-124343.067,-138331.013,-130555.735,-168688.75
3.716,09-22-2026 21:27:45:235,-222597.581,-159254.838,-143535.661,-156617.198,-139600.368,-153534.669,-146394.047,-166343.157
3.72,09-22-2026 21:27:45:239,-222739.202,-159679.7,-167110.672,-165682.753,-163096.611,-176948.3,-169996.237,-171034.342
3.724,09-22-2026 21:27:45:243,-222768.706,-159638.394,-164318.894,-169813.892,-160655.443,-174819.788,-167201.241,-175647.339
3.728,09-22-2026 21:27:45:247,-222666.424,-159237.136,-141054.081,-164535.214,-137769.492,-152014.303,-143909.606,-174630.916
3.732,09-22-2026 21:27:45:251,-222573.977,-159024.705,-128335.983,-156387.69,-124953.359,-138939.159,-131176.845,-168845.122
3.736,09-22-2026 21:27:45:255,-222629.052,-159296.144,-142915.266,-156617.198,-138990.076,-152926.523,-145772.936,-166421.344
3.74,09-22-2026 21:27:45:259,-222762.805,-159697.403,-165249.487,-164994.23,-161265.735,-175123.861,-168132.906,-170643.41
3.744,09-22-2026 21:27:45:263,-222786.408,-159667.898,-163388.302,-169010.615,-159740.005,-173603.496,-166269.576,-175100.034
3.748,09-22-2026 21:27:45:267,-222682.16,-159284.342,-141364.278,-164190.953,-138074.638,-152318.377,-144530.716,-174239.984
3.752,09-22-2026 21:27:45:271,-222589.713,-159071.911,-128956.378,-156387.69,-125563.651,-139547.305,-131797.955,-168766.936
3.756,09-22-2026 21:27:45:275,-222640.854,-159319.748,-141984.673,-156272.937,-138074.638,-152014.303,-144841.271,-166186.785
3.76,09-22-2026 21:27:45:279,-222766.739,-159709.204,-163698.499,-164190.953,-159740.005,-173603.496,-166580.131,-170174.291
3.764,09-22-2026 21:27:45:283,-222782.474,-159685.601,-162457.709,-168322.091,-158519.421,-172691.276,-165337.91,-174474.543
3.768,09-22-2026 21:27:45:287,-222678.226,-159313.847,-141674.476,-163731.937,-138379.784,-152318.377,-144530.716,-173849.052
3.772,09-22-2026 21:27:45:291,-222585.779,-159095.515,-128956.378,-156158.183,-125563.651,-139547.305,-131797.955,-168532.377
3.776,09-22-2026 21:27:45:295,-222634.953,-159331.549,-141364.278,-155928.675,-137769.492,-151406.157,-144220.161,-165952.225
3.78,09-22-2026 21:27:45:299,-222758.871,-159715.105,-162457.709,-163617.183,-158519.421,-172387.203,-165337.91,-169626.986
3.784,09-22-2026 21:27:45:303,-222774.607,-159697.403,-161837.314,-167748.322,-158214.275,-172083.13,-164716.8,-174005.425
3.788,09-22-2026 21:27:45:307,-222666.424,-159325.648,-141674.476,-163387.676,-138379.784,-152622.45,-144530.716,-173458.12
3.792,09-22-2026 21:27:45:311,-222575.944,-159113.217,-129576.773,-156158.183,-126173.943,-140155.451,-132419.066,-168454.19
3.796,09-22-2026 21:27:45:315,-222625.118,-159343.351,-141364.278,-155928.675,-137464.346,-151406.157,-144220.161,-165952.225
3.8,09-22-2026 21:27:45:319,-222751.003,-159721.006,-161837.314,-163387.676,-157909.129,-171779.057,-164716.8,-169548.8
3.804,09-22-2026 21:27:45:323,-222768.035,-159706.88,-161220.719,-167288.279,-157476.265,-171478.426,-164100.339,-173673.68
3.808,09-22-2026 21:27:45:327,-222666.111,-159352.828,-142053.383,-163279.046,-138761.194,-152763.355,-144915.568,-173373.049
3.812,09-22-2026 21:27:45:331,-222581.175,-159143.616,-130012.364,-156151.522,-126608.551,-140610.712,-132863.597,-168502.828
3.816,09-22-2026 21:27:45:335,-222635.534,-159374.286,-141561.912,-155973.334,-137788.983,-151548.091,-144177.692,-166037.654
3.82,09-22-2026 21:27:45:339,-222759.542,-159744.431,-161220.719,-163100.858,-157476.265,-171235.373,-164100.339,-169464.847
3.824,09-22-2026 21:27:45:343,-222776.529,-159728.337,-160974.984,-167110.091,-157233.212,-171235.373,-163854.38,-173613.554
3.828,09-22-2026 21:27:45:347,-222676.304,-159379.65,-142053.383,-163189.952,-138761.194,-153006.408,-145161.527,-173312.923
