PseudoTimeSec,PseudoTimestamp,UF-FP1,UF-FP2,UF-O1,UF-O2,UF-C3,UF-CZ,UF-FZ,UF-C4
0.004,09-21-2026 21:18:29:345,-180633.209,170893.481,126928.136,66265.189,112010.224,24249.72,-204408.178,35201.539
0.008,09-21-2026 21:18:29:349,-166152.631,173120.609,126001.88,70883.953,111278.517,42454.412,-198641.607,38400.163
0.012,09-21-2026 21:18:29:353,-174978.888,171775.928,126407.117,66603.147,112110.002,29369.79,-202518.294,33294.667
0.016,09-21-2026 21:18:29:357,-183529.324,170473.268,126986.027,64012.133,112619.98,18940.019,-204456.637,31572.331
0.02,09-21-2026 21:18:29:361,-181736.491,170725.396,127010.837,65927.23,112110.002,23111.927,-204408.178,34955.491
0.024,09-21-2026 21:18:29:365,-170703.67,172406.247,126390.577,70264.363,111234.172,38282.503,-203051.338,39199.819
0.028,09-21-2026 21:18:29:369,-166290.541,173078.587,126026.69,70996.606,111300.69,42644.044,-198786.983,38584.699
0.032,09-21-2026 21:18:29:373,-173461.875,172028.055,126365.766,67391.717,111988.051,31266.112,-202082.166,33909.787
0.036,09-21-2026 21:18:29:377,-183115.594,170557.311,126936.406,64068.459,112531.288,18940.019,-204456.637,31449.307
0.04,09-21-2026 21:18:29:381,-182012.311,170683.374,126986.027,65701.925,112098.916,22353.398,-204505.095,34709.443
0.044,09-21-2026 21:18:29:385,-171255.311,172322.204,126332.686,70039.057,111245.258,37523.974,-203196.714,39015.283
0.048,09-21-2026 21:18:29:389,-166014.721,173141.619,125960.529,71165.585,111223.085,42833.676,-198544.69,38707.723
0.052,09-21-2026 21:18:29:393,-172634.414,172154.119,126274.794,67617.022,111899.359,32024.641,-201742.956,34032.811
0.056,09-21-2026 21:18:29:397,-182701.863,170599.332,126919.866,64124.786,112509.115,18940.019,-204505.095,31387.795
0.06,09-21-2026 21:18:29:401,-181874.401,170704.385,126986.027,65701.925,112110.002,21974.134,-204553.554,34586.419
0.064,09-21-2026 21:18:29:405,-171117.401,172343.215,126357.496,70095.384,111256.344,37334.342,-203439.007,38953.771
0.068,09-21-2026 21:18:29:409,-166428.452,173078.587,125993.61,70940.279,111256.344,41885.515,-199610.779,38400.163
0.072,09-21-2026 21:18:29:413,-174427.247,171859.97,126374.036,66941.105,112010.224,29369.79,-202663.669,33356.179
0.07600001,09-21-2026 21:18:29:417,-183115.594,170557.311,126928.136,64181.112,112564.547,18750.387,-204650.471,31387.795
0.08000001,09-21-2026 21:18:29:421,-181460.67,170788.428,126936.406,65983.557,112065.656,22922.295,-204650.471,34770.955
0.08400001,09-21-2026 21:18:29:425,-170565.76,172427.258,126316.145,70320.689,111211.999,38092.871,-203487.465,39076.795
0.08800001,09-21-2026 21:18:29:429,-166152.631,173141.619,125960.529,71052.932,111211.999,42454.412,-199610.779,38461.675
0.09200001,09-21-2026 21:18:29:433,-174013.516,171965.024,126340.956,67110.085,111988.051,29749.054,-202663.669,33417.691
0.096,09-21-2026 21:18:29:437,-182839.773,170620.343,126919.866,64293.765,112542.374,18940.019,-204698.93,31387.795
0.1,09-21-2026 21:18:29:441,-181460.67,170809.438,126936.406,65983.557,112054.57,22732.663,-204698.93,34647.931
0.104,09-21-2026 21:18:29:445,-170565.983,172459.399,126305.774,70303.657,111198.275,38249.378,-203622.872,39076.974
0.108,09-21-2026 21:18:29:449,-165930.857,173196.56,125971.034,71192.005,111209.048,42657.187,-199763.709,38590.6
0.112,09-21-2026 21:18:29:453,-173656.067,172025.776,126342.967,67249.962,111963.196,30200.336,-202745.79,33544.47
0.116,09-21-2026 21:18:29:457,-182504.944,170681.542,126910.165,64362.832,112544.967,19276.636,-204806.933,31477.381
0.12,09-21-2026 21:18:29:461,-181240.819,170854.991,126956.657,66028.484,112092.479,22917.869,-204806.933,34638.811
0.124,09-21-2026 21:18:29:465,-170285.066,172524.443,126342.967,70414.701,111219.822,38441.022,-203666.726,39076.974
0.128,09-21-2026 21:18:29:469,-165228.565,173304.966,125980.333,71414.092,111198.275,43423.762,-199500.585,38772.99
0.132,09-21-2026 21:18:29:473,-172111.025,172285.95,126305.774,67749.657,111898.555,32308.418,-202351.103,34030.844
0.136,09-21-2026 21:18:29:477,-181662.194,170833.31,126928.762,64473.875,112501.873,19851.568,-204806.933,31477.381
0.14,09-21-2026 21:18:29:481,-181381.277,170854.991,127040.342,65750.875,112124.799,21959.65,-204894.642,34395.624
0.144,09-21-2026 21:18:29:485,-170285.066,172524.443,126417.354,70303.657,111252.142,37866.09,-203842.143,39016.177
0.148,09-21-2026 21:18:29:489,-164947.649,173391.691,126045.421,71414.092,111198.275,43615.406,-199588.293,38833.787
0.152,09-21-2026 21:18:29:493,-170987.358,172459.399,126324.371,68027.266,111855.461,33458.282,-202087.978,34334.828
0.156,09-21-2026 21:18:29:497,-181381.277,170876.672,126975.253,64362.832,112501.873,19659.924,-204894.642,31416.584
0.16,09-21-2026 21:18:29:501,-181662.194,170833.31,127096.132,65528.788,112167.893,21193.075,-204982.35,34152.437
0.164,09-21-2026 21:18:29:505,-170425.525,172524.443,126473.144,70137.092,111306.01,37482.803,-204061.413,38955.38
0.168,09-21-2026 21:18:29:509,-164807.19,173391.691,126054.719,71414.092,111230.595,43615.406,-199939.126,38894.583
0.172,09-21-2026 21:18:29:513,-170846.9,172502.762,126305.774,68082.788,111866.234,33649.925,-202219.54,34334.828
0.176,09-21-2026 21:18:29:517,-181381.277,170898.354,126984.552,64362.832,112523.42,19659.924,-204938.496,31355.787
0.18,09-21-2026 21:18:29:521,-181521.735,170854.991,127124.027,65473.266,112200.214,21193.075,-205070.058,34091.641
0.184,09-21-2026 21:18:29:525,-170285.066,172546.124,126501.039,70137.092,111327.557,37482.803,-204105.267,38955.38
0.188,09-21-2026 21:18:29:529,-164666.732,173435.053,126091.913,71414.092,111241.369,43615.406,-200026.834,38894.583
0.192,09-21-2026 21:18:29:533,-170706.441,172524.443,126380.161,68082.788,111920.102,33458.282,-202307.248,34334.828
0.196,09-21-2026 21:18:29:537,-180959.902,170963.397,127031.043,64473.875,112566.514,19851.568,-204982.35,31416.584
0.2,09-21-2026 21:18:29:541,-181240.819,170898.354,127151.922,65584.31,112232.535,21384.719,-205070.058,34152.437
0.204,09-21-2026 21:18:29:545,-169851.443,172615.102,126496.881,70273.661,111345.483,37953.351,-204102.317,38993.602
0.208,09-21-2026 21:18:29:549,-164217.015,173503.807,126094.55,71525.627,111236.854,43917.87,-199889.103,38993.602
0.212,09-21-2026 21:18:29:553,-170555.746,172548.449,126398.534,67997.359,111921.219,33335.66,-202378.729,34308.81
0.216,09-21-2026 21:18:29:557,-180556.855,171037.65,127015.442,64525.999,112562.133,20252.2,-205011.988,31510.104
0.22,09-21-2026 21:18:29:561,-180979.437,170948.779,127149.552,65550.335,112225.382,21406.623,-205155.621,34065.444
0.224,09-21-2026 21:18:29:565,-169710.582,172659.537,126496.881,70216.754,111334.62,37953.351,-204150.194,38993.602
0.228,09-21-2026 21:18:29:569,-164076.154,173548.242,126094.55,71468.719,111225.991,43917.87,-200032.735,38993.602
0.232,09-21-2026 21:18:29:573,-170414.885,172592.884,126380.652,67997.359,111910.357,33335.66,-202474.484,34308.81
0.236,09-21-2026 21:18:29:577,-180415.995,171059.867,127015.442,64525.999,112572.996,20252.2,-205107.743,31510.104
0.24,09-21-2026 21:18:29:581,-180979.437,170970.997,127167.434,65493.428,112247.108,21214.219,-205203.498,34004.603
0.244,09-21-2026 21:18:29:585,-169710.582,172681.755,126532.644,70216.754,111356.346,37760.948,-204245.949,38993.602
0.248,09-21-2026 21:18:29:589,-163935.293,173592.678,126112.431,71525.627,111225.991,44110.274,-200032.735,39054.443
0.252,09-21-2026 21:18:29:593,-169992.303,172681.755,126398.534,68111.174,111921.219,33720.468,-202330.852,34430.493
0.256,09-21-2026 21:18:29:597,-180134.273,171148.738,127069.086,64582.907,112605.585,20444.604,-205107.743,31510.104
0.26,09-21-2026 21:18:29:601,-180697.716,171037.65,127203.197,65550.335,112290.56,21406.623,-205251.375,34004.603
0.264,09-21-2026 21:18:29:605,-169569.721,172726.19,126532.644,70216.754,111421.524,37953.351,-204198.072,38993.602
0.268,09-21-2026 21:18:29:609,-163512.711,173659.33,126094.55,71639.442,111247.717,44495.081,-199649.715,39115.285
0.272,09-21-2026 21:18:29:613,-169147.139,172837.278,126371.712,68452.62,111899.494,34682.487,-201804.2,34673.859
0.276,09-21-2026 21:18:29:617,-179570.83,171237.608,127042.264,64696.722,112605.585,20829.412,-205107.743,31570.945
0.28,09-21-2026 21:18:29:621,-180556.855,171082.085,127212.137,65550.335,112312.286,21214.219,-205251.375,34004.603
0.284,09-21-2026 21:18:29:625,-169288,172815.06,126541.585,70273.661,111432.387,37953.351,-204054.44,39054.443
0.288,09-21-2026 21:18:29:629,-163090.129,173770.419,126103.491,71753.257,111247.717,44687.485,-199170.941,39236.967
0.292,09-21-2026 21:18:29:633,-168865.418,172903.931,126371.712,68452.62,111910.357,34874.89,-201660.568,34734.7
0.296,09-21-2026 21:18:29:637,-179289.109,171326.479,127051.205,64696.722,112605.585,20829.412,-205107.743,31631.786
0.3,09-21-2026 21:18:29:641,-180697.716,171082.085,127230.019,65379.612,112344.874,21021.816,-205251.375,33882.92
0.304,09-21-2026 21:18:29:645,-169344.326,172840.228,126559.779,70231.55,111436.812,37934.308,-204122.791,39079.611
0.308,09-21-2026 21:18:29:649,-163228.129,173777.124,126107.156,71641.945,111267.833,44521.143,-199246.535,39264.147
0.312,09-21-2026 21:18:29:653,-168449.273,172974.071,126358.614,68539.076,111909.954,35139.893,-201370.844,34896.795
0.316,09-21-2026 21:18:29:657,-179339.088,171323.35,127052.635,64589.97,112642.197,20768.615,-205088.387,31575.147
0.32,09-21-2026 21:18:29:661,-180830.843,171100.279,127243.743,65266.96,112383.096,20569.014,-205281.506,33789.579
0.324,09-21-2026 21:18:29:665,-169642.677,172795.614,126569.838,70062.303,111493.139,37535.106,-204074.511,38956.587
0.328,09-21-2026 21:18:29:669,-163228.129,173799.431,126127.273,71641.945,111279.099,44521.143,-199246.535,39264.147
0.332,09-21-2026 21:18:29:673,-168747.624,172974.071,126388.788,68426.245,111943.75,34940.292,-201563.963,34835.283
0.336,09-21-2026 21:18:29:677,-179339.088,171345.657,127072.752,64646.386,112653.463,20768.615,-205088.387,31575.147
0.34,09-21-2026 21:18:29:681,-181129.194,171055.665,127283.976,65154.128,112428.157,20169.812,-205329.785,33728.067
0.344,09-21-2026 21:18:29:685,-169791.853,172795.614,126630.187,70062.303,111526.935,37335.505,-204219.351,38956.587
0.348,09-21-2026 21:18:29:689,-163526.48,173777.124,126187.623,71641.945,111324.16,44321.542,-199391.374,39325.659
0.352,09-21-2026 21:18:29:693,-168449.273,173018.685,126429.022,68595.492,111955.015,35339.494,-201226.005,34958.307
0.356,09-21-2026 21:18:29:697,-179488.263,171367.964,127123.043,64589.97,112687.258,20768.615,-205088.387,31636.659
0.36,09-21-2026 21:18:29:701,-181278.37,171077.972,127334.267,65154.128,112450.688,20169.812,-205329.785,33666.555
0.364,09-21-2026 21:18:29:705,-170090.204,172773.307,126660.362,69949.471,111549.465,36936.302,-204219.351,38895.075
0.368,09-21-2026 21:18:29:709,-163377.304,173799.431,126187.623,71641.945,111301.629,44321.542,-199391.374,39325.659
0.372,09-21-2026 21:18:29:713,-168598.448,173018.685,126408.905,68482.66,111932.485,35339.494,-201419.124,34958.307
0.376,09-21-2026 21:18:29:717,-179339.088,171390.271,127102.927,64646.386,112664.728,20768.615,-205088.387,31636.659
0.38,09-21-2026 21:18:29:721,-181576.721,171033.358,127344.325,64984.881,112450.688,19770.61,-205329.785,33543.531
0.384,09-21-2026 21:18:29:725,-170388.555,172751,126700.595,69893.056,111560.731,36736.701,-204412.47,38833.563
0.388,09-21-2026 21:18:29:729,-163974.007,173732.51,126237.914,71472.698,111312.894,43922.34,-200019.011,39264.147
0.392,09-21-2026 21:18:29:733,-169045.975,172974.071,126469.255,68482.66,111955.015,34940.292,-201563.963,34958.307
0.396,09-21-2026 21:18:29:737,-180084.965,171301.043,127153.218,64477.138,112698.524,20369.413,-205136.666,31513.635
0.4,09-21-2026 21:18:29:741,-182173.423,170966.437,127384.559,64815.633,112484.483,19171.806,-205378.065,33420.507
0.404,09-21-2026 21:18:29:745,-171341.052,172628.423,126746.55,69613.256,111617.638,35769.72,-204568.798,38682.197
0.408,09-21-2026 21:18:29:749,-164724.221,173637.47,126272.693,71349.898,111345.126,43216.964,-200659.612,39165.71
0.412,09-21-2026 21:18:29:753,-169686.844,172880.685,126500.145,68310.776,111980.988,34593.84,-202139.789,34874.533
0.416,09-21-2026 21:18:29:757,-180514.387,171252.45,127191.976,64457.603,112719.043,20091.313,-205176.05,31489.942
0.42,09-21-2026 21:18:29:761,-183221.273,170816.725,127438.382,64674.683,112548.722,18327.492,-205441.723,33242.677
0.424,09-21-2026 21:18:29:765,-171942.582,172513.759,126774.982,69558.986,111651.702,35181.78,-204758.564,38561.319
0.428,09-21-2026 21:18:29:769,-165626.516,173499.873,126282.171,71187.087,111390.544,42629.024,-201646.397,39105.271
0.432,09-21-2026 21:18:29:773,-170288.374,172811.886,126490.668,68365.046,112026.407,34397.86,-202671.135,34934.972
0.436,09-21-2026 21:18:29:777,-180815.152,171206.584,127163.545,64457.603,112753.107,20091.313,-205251.957,31489.942
0.44,09-21-2026 21:18:29:781,-183522.038,170793.792,127409.95,64620.413,112548.722,18327.492,-205479.676,33182.238
0.444,09-21-2026 21:18:29:785,-172243.347,172467.893,126756.028,69558.986,111663.057,35181.78,-204796.517,38561.319
0.448,09-21-2026 21:18:29:789,-165776.898,173476.94,126291.648,71295.628,111401.899,42825.004,-201684.35,39165.71
0.452,09-21-2026 21:18:29:793,-169987.609,172834.819,126481.191,68527.856,112003.697,34985.8,-202443.415,35055.85
0.456,09-21-2026 21:18:29:797,-180965.535,171183.651,127163.545,64457.603,112764.461,20287.293,-205251.957,31489.942
0.46,09-21-2026 21:18:29:801,-183522.038,170770.859,127428.904,64674.683,112571.432,18327.492,-205479.676,33182.238
0.464,09-21-2026 21:18:29:805,-172694.495,172399.094,126784.459,69450.446,111697.121,34985.8,-204834.471,38500.88
0.468,09-21-2026 21:18:29:809,-165776.898,173476.94,126301.125,71295.628,111401.899,42825.004,-201912.07,39165.71
0.472,09-21-2026 21:18:29:813,-170137.992,172834.819,126481.191,68527.856,112026.407,34985.8,-202822.948,35055.85
0.476,09-21-2026 21:18:29:817,-180664.769,171206.584,127135.113,64620.413,112753.107,20679.253,-205251.957,31550.381
0.48,09-21-2026 21:18:29:821,-183822.803,170724.993,127381.519,64566.143,112594.141,18327.492,-205479.676,33061.359
0.484,09-21-2026 21:18:29:825,-172844.878,172376.162,126718.119,69450.446,111719.83,34985.8,-204872.424,38500.88
0.488,09-21-2026 21:18:29:829,-166077.663,173431.074,126234.785,71241.357,111424.608,42825.004,-202063.883,39165.71
0.492,09-21-2026 21:18:29:833,-169987.609,172857.752,126414.851,68636.396,112026.407,35377.76,-202595.228,35176.728
0.496,09-21-2026 21:18:29:837,-180965.535,171183.651,127097.205,64511.873,112787.171,20679.253,-205214.003,31550.381
0.5,09-21-2026 21:18:29:841,-183822.803,170724.993,127381.519,64566.143,112628.205,18327.492,-205479.676,33061.359
0.504,09-21-2026 21:18:29:845,-173079.929,172337.18,126739.845,69341.549,111756.711,34766.529,-204768.354,38394.888
0.508,09-21-2026 21:18:29:849,-165960.898,173430.225,126239.926,71337.112,111415.802,43202.346,-201660.568,39272.328
0.512,09-21-2026 21:18:29:853,-169883.629,172850.242,126409.71,68676.361,112020.64,35770.793,-202289.993,35261.173
0.516,09-21-2026 21:18:29:857,-180634.818,171221.828,127117.142,64685.233,112790.434,21108.54,-205122.406,31688.739
0.52,09-21-2026 21:18:29:861,-184121.69,170686.459,127409.548,64463.504,112647.472,18296.602,-205358.44,33067.573
0.524,09-21-2026 21:18:29:865,-173079.929,172337.18,126777.575,69396.981,111767.708,34967.382,-204729.015,38520.236
0.528,09-21-2026 21:18:29:869,-166106.184,173407.918,126258.791,71281.68,111426.799,43202.346,-201503.211,39335.002
0.532,09-21-2026 21:18:29:873,-169593.056,172894.856,126400.277,68787.225,111998.646,36172.499,-201857.263,35449.196
0.536,09-21-2026 21:18:29:877,-180634.818,171221.828,127079.413,64574.369,112768.44,21108.54,-205043.728,31688.739
0.54,09-21-2026 21:18:29:881,-184121.69,170686.459,127390.683,64463.504,112636.475,18296.602,-205319.101,33067.573
0.544,09-21-2026 21:18:29:885,-173370.501,172292.566,126768.142,69286.116,111767.708,34766.529,-204610.998,38520.236
0.548,09-21-2026 21:18:29:889,-165960.898,173452.532,126258.791,71337.112,111393.808,43403.199,-201031.143,39460.351
0.552,09-21-2026 21:18:29:893,-169447.77,172917.163,126390.845,68842.658,111965.655,36574.204,-201581.89,35574.545
0.5560001,09-21-2026 21:18:29:897,-180344.245,171266.442,127079.413,64685.233,112746.446,21510.246,-204965.05,31814.087
0.56,09-21-2026 21:18:29:901,-184121.69,170686.459,127400.115,64408.072,112647.472,18296.602,-205279.762,33004.899
0.564,09-21-2026 21:18:29:905,-173225.215,172337.18,126777.575,69341.549,111778.705,34967.382,-204610.998,38582.911
0.568,09-21-2026 21:18:29:909,-165815.612,173474.839,126249.358,71392.545,111404.805,43604.051,-200795.108,39585.699
0.572,09-21-2026 21:18:29:913,-168866.625,173028.698,126381.412,69064.387,111954.658,37176.762,-200952.464,35762.568
0.576,09-21-2026 21:18:29:917,-180198.959,171333.363,127088.845,64740.666,112746.446,21911.952,-204886.371,31876.762
0.58,09-21-2026 21:18:29:921,-183976.404,170731.073,127428.413,64463.504,112658.469,18296.602,-205279.762,33067.573
0.5840001,09-21-2026 21:18:29:925,-173370.501,172337.18,126796.44,69230.684,111789.702,34766.529,-204571.659,38520.236
0.588,09-21-2026 21:18:29:929,-165670.325,173519.453,126277.656,71447.977,111393.808,43804.904,-200362.378,39648.374
0.592,09-21-2026 21:18:29:933,-168576.052,173095.619,126381.412,69175.252,111943.661,37779.321,-200480.396,35950.59
0.596,09-21-2026 21:18:29:937,-179763.1,171400.284,127098.277,64851.53,112768.44,22313.657,-204768.354,32002.11
0.6,09-21-2026 21:18:29:941,-183831.118,170775.687,127437.845,64463.504,112691.461,18698.307,-205201.084,33130.247
0.604,09-21-2026 21:18:29:945,-173033.124,172404.28,126807.079,69364.794,111807.807,35431.762,-204162.13,38714.428
0.608,09-21-2026 21:18:29:949,-164816.444,173650.256,126247.928,71748.072,111362.739,44894.775,-199053.863,39927.323
0.612,09-21-2026 21:18:29:953,-167917.078,173218.956,126363.978,69303.685,111924.93,38442.721,-199643.278,36160.965
0.6160001,09-21-2026 21:18:29:957,-179234.392,171517.72,127091.93,64964.898,112733.08,22957.79,-204620.565,32203.097
0.62,09-21-2026 21:18:29:961,-183575.28,170846.81,127440.08,64476.021,112686.23,18871.488,-205078.999,33224.482
0.624,09-21-2026 21:18:29:965,-172412.997,172500.124,126817.629,69487.014,111784.382,35646.83,-203703.696,38905.938
0.628,09-21-2026 21:18:29:969,-164351.349,173746.1,126258.478,71809.181,111339.314,45109.844,-198071.503,40118.833
0.632,09-21-2026 21:18:29:973,-167141.919,173362.723,126374.528,69548.123,111878.081,39302.995,-198595.428,36416.311
0.636,09-21-2026 21:18:29:977,-178769.297,171589.604,127113.03,65026.008,112733.08,23172.858,-204489.583,32266.934
0.64,09-21-2026 21:18:29:981,-183110.184,170918.694,127492.83,64537.131,112697.943,19086.557,-205078.999,33224.482
0.6440001,09-21-2026 21:18:29:985,-172412.997,172548.046,126859.829,69487.014,111819.519,35646.83,-203114.28,38905.938
0.648,09-21-2026 21:18:29:989,-163886.254,173865.905,126290.128,71931.401,111339.314,45324.912,-197089.144,40246.506
0.652,09-21-2026 21:18:29:993,-166831.856,173434.606,126385.078,69609.233,111878.081,39302.995,-198202.485,36480.148
0.656,09-21-2026 21:18:29:997,-178304.202,171685.448,127113.03,65087.118,112733.08,23387.927,-204424.093,32330.77
0.66,09-21-2026 21:18:30:001,-183265.216,170918.694,127492.83,64353.802,112733.08,18656.42,-205013.508,33096.809
0.664,09-21-2026 21:18:30:005,-172257.965,172572.007,126870.379,69425.904,111842.944,35431.762,-202983.299,38905.938
0.668,09-21-2026 21:18:30:009,-163886.254,173865.905,126290.128,71870.291,111339.314,45109.844,-196958.163,40246.506
0.6720001,09-21-2026 21:18:30:013,-166521.793,173506.489,126385.078,69670.343,111878.081,39302.995,-197744.05,36607.821
0.6760001,09-21-2026 21:18:30:017,-178304.202,171685.448,127144.68,65026.008,112768.216,23172.858,-204358.602,32330.77
0.68,09-21-2026 21:18:30:021,-183110.184,170942.655,127545.581,64353.802,112768.216,18441.351,-205013.508,33160.646
0.684,09-21-2026 21:18:30:025,-172568.029,172548.046,126933.679,69303.685,111901.505,35001.625,-202983.299,38842.102
0.688,09-21-2026 21:18:30:029,-163886.254,173889.866,126353.428,71931.401,111362.739,45109.844,-196761.691,40310.343
0.692,09-21-2026 21:18:30:033,-166366.761,173530.45,126427.278,69670.343,111901.505,39518.063,-197547.579,36671.658
0.696,09-21-2026 21:18:30:037,-178304.202,171733.37,127186.88,65026.008,112791.641,23172.858,-204293.111,32330.77
0.7,09-21-2026 21:18:30:041,-183575.28,170894.733,127587.781,64170.473,112826.778,18011.214,-205013.508,32969.136
0.7040001,09-21-2026 21:18:30:045,-172971.523,172493.374,126969.308,69184.908,111929.668,34444.664,-203123.579,38771.604
0.708,09-21-2026 21:18:30:049,-164510.538,173815.167,126379.222,71688.839,111403.955,44348.096,-197223.791,40193.712
0.712,09-21-2026 21:18:30:053,-166850.81,173457.181,126475.781,69580.265,111929.668,38820.599,-197725.901,36573.802
0.716,09-21-2026 21:18:30:057,-179452.277,171557.104,127258.987,64638.295,112855.925,21777.483,-204316.089,32048.915
0.72,09-21-2026 21:18:30:061,-185212.947,170675.909,127677.411,63715.793,112918.51,16019.674,-205132.017,32566.045
0.724,09-21-2026 21:18:30:065,-174591.711,172273.075,127044.41,68789.55,112029.804,32832.477,-204065.034,38448.398
0.728,09-21-2026 21:18:30:069,-165410.643,173677.48,126422.137,71622.946,111428.989,43887.471,-198667.356,40129.07
0.7320001,09-21-2026 21:18:30:073,-167930.936,173319.495,126507.968,69382.586,111942.185,38359.974,-198792.884,36509.161
0.7360001,09-21-2026 21:18:30:077,-180352.382,171446.955,127291.173,64572.402,112868.442,21316.859,-204504.38,31984.273
0.74,09-21-2026 21:18:30:081,-186473.094,170483.148,127720.327,63452.222,112981.094,15328.737,-205194.781,32372.121
0.744,09-21-2026 21:18:30:085,-176031.879,172052.776,127098.054,68394.192,112079.872,31450.603,-204629.908,38125.192
0.748,09-21-2026 21:18:30:089,-167210.852,173402.107,126465.053,71161.696,111491.574,42275.285,-200675.795,39805.864
0.752,09-21-2026 21:18:30:093,-168651.02,173181.808,126475.781,69382.586,111979.736,38129.662,-199859.866,36509.161
0.756,09-21-2026 21:18:30:097,-180532.402,171364.343,127205.342,64638.295,112880.959,22007.796,-204567.144,32048.915
0.7600001,09-21-2026 21:18:30:101,-186113.052,170510.685,127613.038,63715.793,112931.027,16480.299,-205194.781,32566.045
0.7640001,09-21-2026 21:18:30:105,-175491.816,172107.851,126990.766,68723.657,112017.287,32832.477,-204441.616,38383.757
0.768,09-21-2026 21:18:30:109,-166490.768,173484.719,126379.222,71425.268,111416.472,43426.847,-199985.394,40064.429
0.772,09-21-2026 21:18:30:113,-168470.999,173236.882,126432.866,69514.372,111917.151,38590.287,-199357.757,36638.443
0.776,09-21-2026 21:18:30:117,-180892.444,171336.805,127205.342,64506.509,112868.442,21547.171,-204504.38,31984.273
0.78,09-21-2026 21:18:30:121,-187013.157,170372.998,127666.682,63386.329,112993.611,15328.737,-205194.781,32307.48
0.784,09-21-2026 21:18:30:125,-176571.942,171942.627,127033.681,68460.085,112092.389,31911.228,-204504.38,38189.833
0.788,09-21-2026 21:18:30:129,-166670.789,173484.719,126357.764,71557.054,111416.472,43657.159,-200048.158,40193.712
0.7920001,09-21-2026 21:18:30:133,-168470.999,173209.345,126389.951,69514.372,111892.117,38820.599,-199420.521,36703.084
0.7960001,09-21-2026 21:18:30:137,-181072.465,171309.268,127205.342,64572.402,112843.408,21547.171,-204504.38,31984.273
0.8,09-21-2026 21:18:30:141,-187373.199,170317.923,127655.953,63320.436,112981.094,15098.425,-205194.781,32178.197
0.804,09-21-2026 21:18:30:145,-176682.583,171912.944,127022.416,68502.777,112068.562,31730.536,-204581.985,38111.512
0.808,09-21-2026 21:18:30:149,-166647.544,173453.963,126317.263,71568.811,111386.208,43553.358,-200124.869,40116.777
0.812,09-21-2026 21:18:30:153,-167799.105,173304.832,126327.947,69835.835,111823.945,39688.204,-198909.291,36882.479
0.816,09-21-2026 21:18:30:157,-180630.795,171341.276,127150.625,64636.909,112802.415,21953.973,-204430.038,31901.661
0.8200001,09-21-2026 21:18:30:161,-187211.148,170322.215,127652.78,63303.851,112982.659,14905.753,-205240.423,32031.033
0.8240001,09-21-2026 21:18:30:165,-176847.092,171888.089,127033.1,68369.471,112094.311,31503.174,-204581.985,37982.141
0.8280001,09-21-2026 21:18:30:169,-166483.035,173453.963,126317.263,71635.463,111373.333,43780.719,-200124.869,40116.777
0.832,09-21-2026 21:18:30:173,-167799.105,173279.977,126327.947,69835.835,111836.819,39688.204,-199111.888,36882.479
0.836,09-21-2026 21:18:30:177,-180466.286,171366.131,127139.941,64703.562,112789.54,22181.335,-204430.038,31966.347
0.84,09-21-2026 21:18:30:181,-187375.657,170297.36,127642.095,63237.198,113008.408,14905.753,-205240.423,31901.661
0.844,09-21-2026 21:18:30:185,-176847.092,171863.234,127043.784,68369.471,112120.061,31275.813,-204632.634,37917.455
0.848,09-21-2026 21:18:30:189,-166483.035,173453.963,126338.631,71635.463,111386.208,43780.719,-200175.518,40116.777
0.8520001,09-21-2026 21:18:30:193,-167470.088,173329.687,126327.947,69969.141,111798.195,40142.928,-198858.642,36882.479
0.8560001,09-21-2026 21:18:30:197,-180466.286,171366.131,127139.941,64703.562,112789.54,22181.335,-204379.389,31901.661
0.86,09-21-2026 21:18:30:201,-187211.148,170297.36,127642.095,63303.851,113008.408,14905.753,-205240.423,31901.661
0.864,09-21-2026 21:18:30:205,-177011.6,171838.379,127011.732,68369.471,112120.061,31275.813,-204581.985,37852.769
0.868,09-21-2026 21:18:30:209,-166483.035,173453.963,126295.895,71702.116,111373.333,43780.719,-200175.518,40116.777
0.872,09-21-2026 21:18:30:213,-167470.088,173329.687,126295.895,69969.141,111798.195,40142.928,-198959.941,36947.165
0.876,09-21-2026 21:18:30:217,-180137.268,171390.986,127107.889,64770.215,112763.791,22408.697,-204430.038,31901.661
0.8800001,09-21-2026 21:18:30:221,-187375.657,170297.36,127620.727,63237.198,112995.534,14905.753,-205240.423,31901.661
0.8840001,09-21-2026 21:18:30:225,-177011.6,171838.379,127033.1,68369.471,112120.061,31275.813,-204683.284,37852.769
0.8880001,09-21-2026 21:18:30:229,-166483.035,173453.963,126327.947,71702.116,111373.333,43780.719,-200327.465,40116.777
0.892,09-21-2026 21:18:30:233,-167141.07,173354.542,126306.579,70102.447,111772.446,40370.29,-198807.993,37011.851
0.896,09-21-2026 21:18:30:237,-180137.268,171415.841,127129.257,64836.867,112763.791,22636.059,-204379.389,31966.347
0.9,09-21-2026 21:18:30:241,-187211.148,170322.215,127652.78,63303.851,113008.408,15133.114,-205240.423,31901.661
0.904,09-21-2026 21:18:30:245,-177313.885,171798.95,127043.337,68208.896,112133.829,30985.508,-204724.277,37786.295
0.9080001,09-21-2026 21:18:30:249,-166417.946,173457.092,126325.622,71739.935,111350.49,43817.913,-200424.963,40198.674
0.9120001,09-21-2026 21:18:30:253,-166913.216,173406.845,126303.539,70178.13,111748.798,40609.812,-198771.381,37116.189
0.9160001,09-21-2026 21:18:30:257,-179955.325,171447.223,127120.629,64881.571,112744.568,22736.105,-204393.56,32023.389
0.92,09-21-2026 21:18:30:261,-187054.194,170316.672,127661.676,63319.765,113010.107,14945.002,-205275.471,31889.368
0.924,09-21-2026 21:18:30:265,-177148.795,171798.95,127087.504,68208.896,112147.106,30756.358,-204669.157,37719.284
0.928,09-21-2026 21:18:30:269,-166252.856,173482.215,126347.706,71739.935,111350.49,43817.913,-200314.724,40198.674
0.932,09-21-2026 21:18:30:273,-166748.126,173431.969,126292.497,70246.034,111735.521,41068.112,-198606.023,37183.2
0.936,09-21-2026 21:18:30:277,-179294.965,171497.47,127109.587,65017.38,112731.291,23194.405,-204283.321,32090.4
0.9400001,09-21-2026 21:18:30:281,-187054.194,170316.672,127661.676,63183.956,112996.83,14945.002,-205275.471,31822.357
0.9440001,09-21-2026 21:18:30:285,-177148.795,171798.95,127087.504,68208.896,112133.829,30527.208,-204724.277,37719.284
0.9480001,09-21-2026 21:18:30:289,-166417.946,173457.092,126336.664,71672.031,111350.49,43817.913,-200424.963,40198.674
0.952,09-21-2026 21:18:30:293,-166252.856,173482.215,126281.455,70381.843,111708.967,41297.262,-198385.545,37384.231
0.956,09-21-2026 21:18:30:297,-179129.875,171547.716,127098.546,65017.38,112718.014,23423.555,-204283.321,32157.41
0.96,09-21-2026 21:18:30:301,-187054.194,170341.795,127672.717,63183.956,113023.384,14715.852,-205275.471,31755.347
0.964,09-21-2026 21:18:30:305,-177478.975,171748.703,127087.504,68005.183,112186.937,30068.908,-204779.396,37652.273
0.9680001,09-21-2026 21:18:30:309,-166252.856,173457.092,126347.706,71739.935,111377.044,43817.913,-200645.441,40265.684
0.9720001,09-21-2026 21:18:30:313,-166252.856,173482.215,126281.455,70381.843,111748.798,41526.412,-198550.904,37518.252
0.9760001,09-21-2026 21:18:30:317,-178964.785,171572.84,127087.504,65085.285,112704.738,23652.705,-204228.202,32291.431
0.98,09-21-2026 21:18:30:321,-187054.194,170316.672,127661.676,63116.051,113036.661,14715.852,-205275.471,31755.347
0.984,09-21-2026 21:18:30:325,-177478.975,171723.58,127109.587,68005.183,112200.214,29839.758,-204779.396,37585.263
0.988,09-21-2026 21:18:30:329,-166417.946,173431.969,126358.748,71672.031,111390.321,43588.763,-200645.441,40265.684
0.992,09-21-2026 21:18:30:333,-166087.766,173507.339,126281.455,70517.653,111722.244,41755.562,-198275.307,37585.263
0.9960001,09-21-2026 21:18:30:337,-178799.695,171572.84,127098.546,65153.189,112704.738,23881.855,-204173.083,32291.431
1,09-21-2026 21:18:30:341,-186724.014,170341.795,127683.759,63183.956,113036.661,14715.852,-205275.471,31755.347
1.004,09-21-2026 21:18:30:345,-177668.831,171695.014,127146.691,67913.809,112225.293,29669.75,-204799.334,37502.383
1.008,09-21-2026 21:18:30:349,-166357.82,173441.133,126395.852,71671.405,111386.029,43699.672,-200637.797,40288.304
1.012,09-21-2026 21:18:30:353,-165866.037,173515.966,126307.517,70530.706,111719.07,41889.36,-198332.08,37570.332
1.016,09-21-2026 21:18:30:357,-178324.542,171620.181,127091.483,65229.811,112691.55,24238.813,-204124.49,32338.236
1.02,09-21-2026 21:18:30:361,-186684.854,170348.009,127676.696,63149.713,113064.556,14960.961,-205249.23,31726.692
1.024,09-21-2026 21:18:30:365,-177668.831,171695.014,127146.691,67913.809,112251.936,29669.75,-204799.334,37502.383
1.028,09-21-2026 21:18:30:369,-166357.82,173416.188,126373.768,71604.305,111399.351,43473.383,-200637.797,40220.355
1.032,09-21-2026 21:18:30:373,-165866.037,173515.966,126285.434,70530.706,111719.07,42115.649,-198107.132,37638.281
1.036,09-21-2026 21:18:30:377,-178488.47,171595.236,127069.399,65162.711,112691.55,24012.524,-204068.253,32338.236
1.04,09-21-2026 21:18:30:381,-186684.854,170348.009,127665.654,63149.713,113037.913,14960.961,-205249.23,31726.692
1.044,09-21-2026 21:18:30:385,-177832.759,171670.07,127157.733,67779.609,112251.936,29443.461,-204799.334,37434.433
1.048,09-21-2026 21:18:30:389,-166357.82,173416.188,126395.852,71604.305,111386.029,43473.383,-200806.508,40288.304
1.052,09-21-2026 21:18:30:393,-165866.037,173515.966,126318.559,70530.706,111719.07,42115.649,-198275.843,37706.231
1.056,09-21-2026 21:18:30:397,-178324.542,171645.125,127102.524,65296.911,112691.55,24238.813,-204068.253,32406.185
1.06,09-21-2026 21:18:30:401,-186684.854,170348.009,127687.738,63149.713,113051.234,14960.961,-205249.23,31726.692
1.064,09-21-2026 21:18:30:405,-177832.759,171645.125,127179.817,67779.609,112251.936,29217.172,-204799.334,37366.484
1.068,09-21-2026 21:18:30:409,-166685.676,173366.299,126395.852,71537.205,111386.029,43247.094,-200918.982,40220.355
1.072,09-21-2026 21:18:30:413,-166357.82,173441.133,126307.517,70329.406,111719.07,41210.492,-198557.028,37434.433
1.076,09-21-2026 21:18:30:417,-179472.036,171445.569,127124.608,64827.211,112758.158,22654.789,-204293.201,31998.489
1.08,09-21-2026 21:18:30:421,-186684.854,170348.009,127654.612,63351.013,113077.878,15413.539,-205249.23,31930.54
1.084,09-21-2026 21:18:30:425,-177668.831,171695.014,127135.65,67980.909,112251.936,29896.039,-204799.334,37570.332
1.088,09-21-2026 21:18:30:429,-166521.748,173416.188,126373.768,71671.405,111412.673,43699.672,-200750.271,40356.253
1.092,09-21-2026 21:18:30:433,-166029.965,173491.022,126296.476,70463.606,111732.392,41889.36,-198275.843,37638.281
1.096,09-21-2026 21:18:30:437,-179144.18,171520.403,127135.65,65028.511,112758.158,23107.368,-204236.964,32202.337
1.1,09-21-2026 21:18:30:441,-186356.999,170422.843,127643.571,63418.113,113064.556,15866.118,-205249.23,31930.54
1.104,09-21-2026 21:18:30:445,-177713.982,171689.382,127128.318,67841.389,112257.837,29626.03,-204762.766,37457.232
1.108,09-21-2026 21:18:30:449,-166284.194,173428.169,126364.559,71646.55,111390.678,43744.644,-200643.787,40380.572
1.112,09-21-2026 21:18:30:453,-166116.108,173504.88,126284.763,70423.462,111731.855,41922.887,-198342.004,37666.042
1.116,09-21-2026 21:18:30:457,-178890.577,171561.53,127105.519,65055.467,112755.387,23477.602,-204157.034,32236.982
1.12,09-21-2026 21:18:30:461,-186454.408,170410.862,127629.891,63288.786,113082.348,15735.136,-205247.352,31888.966
1.124,09-21-2026 21:18:30:465,-177882.067,171689.382,127151.117,67773.44,112300.484,29626.03,-204823.34,37457.232
1.128,09-21-2026 21:18:30:469,-166620.364,173402.598,126364.559,71578.601,111461.757,43744.644,-200825.507,40380.572
1.132,09-21-2026 21:18:30:473,-165948.023,173530.45,126273.364,70559.361,111760.287,42150.607,-198039.138,37805.249
1.136,09-21-2026 21:18:30:477,-178890.577,171561.53,127105.519,65055.467,112783.818,23705.321,-204096.461,32306.586
1.14,09-21-2026 21:18:30:481,-186286.323,170436.432,127664.09,63356.735,113139.211,15735.136,-205247.352,31958.569
1.144,09-21-2026 21:18:30:485,-178218.237,171638.241,127185.315,67637.541,112357.347,29398.311,-204762.766,37387.629
1.148,09-21-2026 21:18:30:489,-166788.449,173402.598,126398.757,71646.55,111490.188,43744.644,-200764.933,40450.175
1.152,09-21-2026 21:18:30:493,-165948.023,173530.45,126284.763,70559.361,111788.718,42378.326,-198039.138,37944.455
1.156,09-21-2026 21:18:30:497,-178722.492,171612.671,127116.919,65191.366,112812.249,23933.041,-204035.888,32445.792
1.16,09-21-2026 21:18:30:501,-186454.408,170410.862,127652.69,63288.786,113181.858,15735.136,-205247.352,32028.172
1.164,09-21-2026 21:18:30:505,-178386.322,171612.671,127196.715,67637.541,112414.21,29170.591,-204762.766,37387.629
1.168,09-21-2026 21:18:30:509,-167124.619,173351.458,126421.556,71510.651,111547.051,43516.924,-200886.08,40450.175
1.172,09-21-2026 21:18:30:513,-165611.853,173607.161,126273.364,70763.209,111802.934,43061.485,-197554.552,38222.869
1.176,09-21-2026 21:18:30:517,-177713.982,171766.093,127048.522,65531.113,112769.602,25527.078,-203733.021,32863.412
1.18,09-21-2026 21:18:30:521,-186454.408,170436.432,127664.09,63220.836,113181.858,15507.417,-205186.779,31819.362
1.184,09-21-2026 21:18:30:525,-179226.748,171510.389,127242.312,67229.845,112456.857,27804.274,-204823.34,37109.216
1.188,09-21-2026 21:18:30:529,-167460.789,173300.317,126444.355,71374.753,111547.051,42833.765,-201128.373,40380.572
1.192,09-21-2026 21:18:30:533,-165443.768,173632.732,126250.565,70899.108,111774.503,43516.924,-197554.552,38431.679
1.196,09-21-2026 21:18:30:537,-177041.641,171868.375,127002.925,65734.961,112698.524,26210.237,-203551.302,33002.619
1.2,09-21-2026 21:18:30:541,-186790.578,170385.292,127698.288,63016.988,113196.074,14824.258,-205247.352,31610.552
1.204,09-21-2026 21:18:30:545,-179625.682,171462.959,127293.721,67181.387,112504.645,27167.07,-204901.302,36962.454
1.208,09-21-2026 21:18:30:549,-168034.961,173214.978,126493.886,71216.86,111607.893,42118.778,-201637.59,40256.207
1.212,09-21-2026 21:18:30:553,-166379.144,173494.285,126324.907,70565.977,111832.081,42118.778,-198436.642,38060.372
1.216,09-21-2026 21:18:30:557,-178963.355,171589.917,127124.742,65228.738,112834.333,23819.673,-204022.611,32502.163
1.22,09-21-2026 21:18:30:561,-186745.696,170396.512,127676.741,63276.09,113216.771,15339.6,-205215.121,31884.585
1.224,09-21-2026 21:18:30:565,-179460.1,171462.959,127237.395,67311.563,112478.27,27836.55,-204838.539,37099.694
1.228,09-21-2026 21:18:30:569,-167703.798,173265.761,126426.295,71412.125,111581.518,43011.417,-201323.772,40393.447
1.232,09-21-2026 21:18:30:573,-166379.144,173494.285,126268.581,70631.065,111832.081,42565.098,-198248.35,38128.992
1.236,09-21-2026 21:18:30:577,-178797.773,171615.308,127068.416,65293.826,112821.145,24265.993,-203897.083,32570.783
1.24,09-21-2026 21:18:30:581,-186745.696,170396.512,127631.679,63341.178,113216.771,15785.92,-205215.121,31953.205
1.244,09-21-2026 21:18:30:585,-179625.682,171462.959,127203.599,67246.475,112491.457,27836.55,-204775.775,37099.694
1.248,09-21-2026 21:18:30:589,-167703.798,173265.761,126415.029,71412.125,111581.518,43011.417,-201198.244,40393.447
1.252,09-21-2026 21:18:30:593,-166213.562,173519.677,126257.315,70696.154,111818.893,42788.257,-197934.532,38266.231
1.256,09-21-2026 21:18:30:597,-178632.191,171666.091,127045.885,65424.003,112821.145,24712.312,-203708.792,32639.403
1.26,09-21-2026 21:18:30:601,-186745.696,170396.512,127620.414,63276.09,113243.146,15785.92,-205152.357,31884.585
1.264,09-21-2026 21:18:30:605,-179625.682,171462.959,127214.864,67246.475,112504.645,27836.55,-204775.775,37031.074
1.268,09-21-2026 21:18:30:609,-168034.961,173240.369,126426.295,71347.037,111594.705,43011.417,-201072.717,40393.447
1.272,09-21-2026 21:18:30:613,-165716.817,173595.851,126246.05,70956.507,111805.706,43457.737,-197244.131,38472.091
1.276,09-21-2026 21:18:30:617,-177638.701,171793.049,127000.824,65684.356,112768.395,26051.271,-203457.737,32982.502
1.28,09-21-2026 21:18:30:621,-186414.532,170447.295,127631.679,63341.178,113229.959,15785.92,-205089.594,31884.585
1.284,09-21-2026 21:18:30:625,-180122.427,171386.784,127259.925,66986.122,112557.395,26943.91,-204713.011,36893.834
1.288,09-21-2026 21:18:30:629,-168200.543,173214.978,126460.09,71281.948,111647.455,42341.938,-201198.244,40393.447
1.292,09-21-2026 21:18:30:633,-165716.817,173621.243,126246.05,71021.595,111818.893,43680.897,-197244.131,38677.95
1.296,09-21-2026 21:18:30:637,-176810.792,171945.399,126955.763,66009.798,112715.645,26943.91,-203206.683,33256.982
1.3,09-21-2026 21:18:30:641,-186745.696,170421.904,127642.945,63145.913,113256.334,15339.6,-205089.594,31678.725
1.304,09-21-2026 21:18:30:645,-180633.924,171323.394,127280.087,66826.709,112609.161,25960.299,-204814.041,36683.504
1.308,09-21-2026 21:18:30:649,-168872.57,173118.597,126457.721,71145.692,111695.422,41666.781,-201692.62,40295.904
1.312,09-21-2026 21:18:30:653,-165633.937,173638.946,126187.354,71145.692,111820.592,43943.083,-197169.745,38837.05
1.316,09-21-2026 21:18:30:657,-176713.473,171973.83,126885.802,66117.622,112709.297,27553.711,-203030.372,33418.451
1.32,09-21-2026 21:18:30:661,-186940.737,170386.767,127618.045,63023.426,113272.561,15034.052,-205068.851,31612.251
1.324,09-21-2026 21:18:30:665,-181315.742,171193.307,127302.617,66568.859,112671.746,25277.409,-204814.041,36544.566
1.328,09-21-2026 21:18:30:669,-169213.479,173040.545,126457.721,71016.767,111707.939,41439.151,-201883.728,40226.434
1.332,09-21-2026 21:18:30:673,-166145.3,173560.893,126187.354,70952.305,111845.626,43715.452,-197615.662,38767.581
1.336,09-21-2026 21:18:30:677,-177054.382,171921.795,126885.802,66053.16,112721.814,27326.08,-203094.074,33418.451
1.34,09-21-2026 21:18:30:681,-187281.646,170334.732,127618.045,62958.963,113285.078,15034.052,-205068.851,31612.251
1.344,09-21-2026 21:18:30:685,-181656.651,171167.29,127325.148,66504.397,112684.263,25277.409,-204814.041,36544.566
1.348,09-21-2026 21:18:30:689,-169554.388,172988.51,126491.517,70887.842,111745.49,41439.151,-201820.025,40295.904
1.352,09-21-2026 21:18:30:693,-166315.754,173508.859,126209.885,70952.305,111858.143,43715.452,-197424.555,38837.05
1.356,09-21-2026 21:18:30:697,-177395.29,171817.726,126908.332,65924.235,112746.848,27098.45,-203094.074,33487.92
1.36,09-21-2026 21:18:30:701,-187281.646,170334.732,127606.78,63087.888,113285.078,15489.312,-205005.149,31820.659
1.364,09-21-2026 21:18:30:705,-181827.105,171115.255,127302.617,66439.935,112671.746,25277.409,-204686.636,36614.035
1.368,09-21-2026 21:18:30:709,-169554.388,172962.492,126457.721,70952.305,111720.456,41666.781,-201565.215,40434.842
1.372,09-21-2026 21:18:30:713,-166486.209,173482.841,126198.62,70887.842,111833.109,43715.452,-197297.15,38975.989
1.376,09-21-2026 21:18:30:717,-177224.836,171843.743,126897.067,65988.698,112709.297,27326.08,-202966.67,33557.389
1.38,09-21-2026 21:18:30:721,-187281.646,170334.732,127584.249,63023.426,113260.044,15489.312,-204877.744,31890.128
1.384,09-21-2026 21:18:30:725,-181827.105,171115.255,127291.352,66439.935,112659.229,25277.409,-204622.934,36614.035
1.388,09-21-2026 21:18:30:729,-169724.842,172962.492,126457.721,70887.842,111707.939,41439.151,-201437.81,40434.842
1.392,09-21-2026 21:18:30:733,-166315.754,173482.841,126187.354,70952.305,111795.558,43715.452,-196978.637,38975.989
1.396,09-21-2026 21:18:30:737,-177224.836,171843.743,126897.067,65988.698,112709.297,27326.08,-202902.967,33626.858
1.4,09-21-2026 21:18:30:741,-186940.737,170360.749,127572.984,63152.351,113260.044,15716.942,-204877.744,31959.597
1.404,09-21-2026 21:18:30:745,-182114.548,171047.484,127287.865,66371.672,112676.083,24924.117,-204621.459,36528.741
1.408,09-21-2026 21:18:30:749,-169853.499,172939.872,126464.158,70875.504,111727.653,41471.024,-201518.411,40484.999
1.412,09-21-2026 21:18:30:753,-166256.924,173487.669,126185.879,71002.373,111812.769,43930.7,-196931.296,39076.84
1.416,09-21-2026 21:18:30:757,-177373.609,171819.38,126876.012,65991.067,112712.561,27383.793,-202800.104,33645.366
1.42,09-21-2026 21:18:30:761,-186855.487,170375.189,127543.882,63199.96,113247.572,15979.843,-204823.831,31968.985
1.424,09-21-2026 21:18:30:765,-182114.548,171047.484,127287.865,66371.672,112676.083,24924.117,-204554.001,36528.741
1.428,09-21-2026 21:18:30:769,-169690.018,172939.872,126441.896,70938.938,111703.335,41471.024,-201248.58,40484.999
1.432,09-21-2026 21:18:30:773,-166256.924,173487.669,126152.486,71065.807,111788.45,43930.7,-196728.924,39143.895
1.436,09-21-2026 21:18:30:777,-176883.167,171869.179,126842.618,66181.37,112663.923,27831.006,-202665.189,33712.421
1.44,09-21-2026 21:18:30:781,-186855.487,170375.189,127532.751,63199.96,113247.572,15979.843,-204823.831,31968.985
1.444,09-21-2026 21:18:30:785,-182114.548,171047.484,127276.734,66371.672,112663.923,24924.117,-204621.459,36461.685
1.448,09-21-2026 21:18:30:789,-170016.98,172914.973,126441.896,70875.504,111703.335,41247.417,-201450.953,40484.999
1.452,09-21-2026 21:18:30:793,-166093.444,173512.569,126152.486,71129.241,111751.972,44154.307,-196594.008,39210.95
1.456,09-21-2026 21:18:30:797,-176883.167,171894.079,126842.618,66244.804,112663.923,28054.613,-202597.732,33846.531
1.46,09-21-2026 21:18:30:801,-186692.007,170400.088,127543.882,63263.394,113223.253,16203.45,-204823.831,31968.985
1.464,09-21-2026 21:18:30:805,-182604.99,170997.685,127321.258,66181.37,112688.242,24253.297,-204621.459,36327.575
1.468,09-21-2026 21:18:30:809,-170016.98,172914.973,126453.027,70938.938,111703.335,41247.417,-201316.038,40484.999
1.472,09-21-2026 21:18:30:813,-166256.924,173512.569,126141.355,71129.241,111751.972,44154.307,-196661.466,39278.005
1.476,09-21-2026 21:18:30:817,-176556.206,171943.879,126809.225,66308.238,112615.286,28278.22,-202530.274,33913.587
1.48,09-21-2026 21:18:30:821,-186855.487,170375.189,127532.751,63199.96,113223.253,15979.843,-204823.831,31968.985
1.484,09-21-2026 21:18:30:825,-182604.99,170997.685,127310.127,66181.37,112676.083,24029.69,-204621.459,36327.575
1.488,09-21-2026 21:18:30:829,-170343.941,172865.173,126453.027,70812.07,111715.494,41023.811,-201450.953,40484.999
1.492,09-21-2026 21:18:30:833,-166093.444,173537.469,126130.223,71256.11,111727.653,44377.913,-196256.721,39412.116
1.496,09-21-2026 21:18:30:837,-176392.725,171993.678,126764.7,66435.107,112603.126,28725.434,-202260.444,34047.697
1.5,09-21-2026 21:18:30:841,-186692.007,170400.088,127488.226,63199.96,113223.253,15979.843,-204756.374,31968.985
1.504,09-21-2026 21:18:30:845,-182989.083,170946.544,127278.611,66036.396,112722.529,23783.508,-204563.121,36241.968
1.508,09-21-2026 21:18:30:849,-170338.711,172864.324,126425.848,70861.02,111731.855,40957.694,-201217.422,40567.835
1.512,09-21-2026 21:18:30:853,-166121.92,173528.17,126100.451,71246.99,111743.791,44573.312,-196198.874,39486.368
1.516,09-21-2026 21:18:30:857,-176015.16,172028.368,126740.024,66551.023,112591.235,29206.935,-202090.213,34146.626
1.52,09-21-2026 21:18:30:861,-186719.321,170405.632,127491.802,63205.95,113247.706,16100.319,-204708.586,31983.692
1.524,09-21-2026 21:18:30:865,-183151.267,170921.957,127312.273,65972.068,112734.465,23557.532,-204563.121,36174.376
1.528,09-21-2026 21:18:30:869,-170663.079,172815.15,126448.289,70732.364,111767.663,40731.718,-201435.62,40500.243
1.532,09-21-2026 21:18:30:873,-166121.92,173528.17,126078.01,71311.318,111755.727,44799.288,-195980.677,39553.96
1.536,09-21-2026 21:18:30:877,-176015.16,172028.368,126717.583,66615.351,112591.235,29432.911,-201944.748,34214.218
1.54,09-21-2026 21:18:30:881,-186719.321,170405.632,127469.361,63270.278,113247.706,16100.319,-204708.586,32051.284
1.544,09-21-2026 21:18:30:885,-183475.635,170872.783,127301.052,65907.74,112770.273,23105.579,-204490.388,36174.376
1.548,09-21-2026 21:18:30:889,-170825.263,172790.563,126437.068,70732.364,111767.663,40731.718,-201290.155,40567.835
1.552,09-21-2026 21:18:30:893,-166284.104,173503.583,126066.789,71246.99,111755.727,44573.312,-195980.677,39689.143
1.556,09-21-2026 21:18:30:897,-176177.344,172003.781,126706.362,66551.023,112579.3,29432.911,-201872.015,34349.401
1.56,09-21-2026 21:18:30:901,-186719.321,170405.632,127480.582,63270.278,113235.77,16326.295,-204635.853,32118.876
1.564,09-21-2026 21:18:30:905,-183475.635,170872.783,127312.273,65907.74,112758.337,23331.556,-204490.388,36174.376
1.568,09-21-2026 21:18:30:909,-170987.448,172765.976,126448.289,70668.035,111767.663,40505.742,-201290.155,40567.835
1.572,09-21-2026 21:18:30:913,-166284.104,173478.997,126100.451,71311.318,111731.855,44799.288,-195907.944,39756.735
1.576,09-21-2026 21:18:30:917,-176015.16,172028.368,126717.583,66679.679,112567.364,29658.887,-201726.55,34416.993
1.58,09-21-2026 21:18:30:921,-186719.321,170405.632,127480.582,63270.278,113235.77,16552.271,-204635.853,32118.876
1.584,09-21-2026 21:18:30:925,-183637.82,170823.609,127334.714,65843.411,112758.337,23105.579,-204417.655,36106.784
1.588,09-21-2026 21:18:30:929,-170987.448,172741.389,126459.509,70668.035,111767.663,40505.742,-200999.224,40567.835
1.592,09-21-2026 21:18:30:933,-166121.92,173503.583,126078.01,71375.647,111731.855,44799.288,-195471.548,39824.327
1.596,09-21-2026 21:18:30:937,-175852.975,172052.955,126695.141,66744.008,112579.3,29884.863,-201581.085,34484.584
1.6,09-21-2026 21:18:30:941,-186557.136,170430.219,127469.361,63398.935,113247.706,16778.248,-204563.121,32186.467
1.604,09-21-2026 21:18:30:945,-183818.064,170802.42,127339.587,65766.074,112790.881,22946.927,-204386.542,36049.832
1.608,09-21-2026 21:18:30:949,-170991.382,172737.723,126464.382,70731.38,111766.814,40622.463,-200916.433,40642.713
1.612,09-21-2026 21:18:30:953,-166282.852,173497.146,126094.103,71431.616,111742.137,44873.541,-195364.26,39843.951
1.616,09-21-2026 21:18:30:957,-175537.548,172100.788,126700.014,66848.256,112556.456,30106.637,-201379.115,34585.435
1.62,09-21-2026 21:18:30:961,-186415.873,170434.957,127451.793,63410.737,113247.393,16682.18,-204540.769,32255.713
1.624,09-21-2026 21:18:30:965,-183818.064,170802.42,127328.366,65766.074,112790.881,22723.186,-204386.542,36049.832
1.628,09-21-2026 21:18:30:969,-171153.745,172713.226,126453.161,70667.722,111791.49,40398.722,-200993.547,40642.713
1.632,09-21-2026 21:18:30:973,-166445.216,173472.649,126094.103,71367.958,111742.137,44426.059,-195518.487,39843.951
1.636,09-21-2026 21:18:30:977,-176674.089,171904.808,126733.676,66402.652,112618.147,28540.451,-201687.569,34252.618
1.64,09-21-2026 21:18:30:981,-186578.236,170410.46,127429.352,63410.737,113259.731,16682.18,-204540.769,32255.713
1.644,09-21-2026 21:18:30:985,-183818.064,170802.42,127283.484,65829.732,112766.205,23170.668,-204309.428,36116.396
1.648,09-21-2026 21:18:30:989,-170991.382,172762.221,126408.279,70795.038,111766.814,40846.204,-200607.979,40709.277
1.652,09-21-2026 21:18:30:993,-166282.852,173472.649,126038,71367.958,111742.137,44873.541,-195287.147,39910.515
1.656,09-21-2026 21:18:30:997,-176349.363,171978.3,126700.014,66593.625,112593.471,28987.933,-201456.228,34385.745
1.66,09-21-2026 21:18:31:001,-186578.236,170410.46,127418.131,63410.737,113284.408,16905.921,-204540.769,32322.277
1.664,09-21-2026 21:18:31:005,-183493.338,170826.917,127272.263,65893.39,112790.881,23170.668,-204309.428,36182.959
1.668,09-21-2026 21:18:31:009,-170991.382,172737.723,126397.059,70731.38,111803.828,40622.463,-200530.866,40709.277
1.672,09-21-2026 21:18:31:013,-165958.126,173521.644,126026.78,71495.273,111729.799,45097.282,-194747.352,40043.642
1.676,09-21-2026 21:18:31:017,-176024.637,172002.798,126677.573,66657.283,112618.147,29435.415,-201147.774,34452.308
1.68,09-21-2026 21:18:31:021,-186091.147,170459.455,127406.91,63538.052,113296.746,17129.662,-204463.655,32322.277
1.684,09-21-2026 21:18:31:025,-183655.701,170802.42,127272.263,65766.074,112815.557,22946.927,-204232.315,36049.832
1.688,09-21-2026 21:18:31:029,-170829.018,172737.723,126397.059,70731.38,111803.828,40622.463,-200299.525,40709.277
1.692,09-21-2026 21:18:31:033,-165958.126,173521.644,126026.78,71431.616,111729.799,45097.282,-194824.465,39977.078
1.696,09-21-2026 21:18:31:037,-175699.911,172051.793,126655.132,66720.941,112568.794,29659.156,-201070.66,34452.308
1.7,09-21-2026 21:18:31:041,-186091.147,170459.455,127395.69,63474.394,113272.069,16905.921,-204463.655,32322.277
1.704,09-21-2026 21:18:31:045,-183640.904,170796.385,127278.611,65745.511,112809.433,22844.153,-204288.149,35982.33
1.708,09-21-2026 21:18:31:049,-170898.622,172706.967,126398.847,70705.676,111822.648,40424.337,-200507.307,40666.809
1.712,09-21-2026 21:18:31:053,-165483.152,173577.612,126002.953,71607.524,111708.788,45542.618,-194520.974,40198.361
1.716,09-21-2026 21:18:31:057,-174562.028,172199.091,126596.794,67162.701,112531.109,31077.91,-200743.61,34911.592
1.72,09-21-2026 21:18:31:061,-185392.968,170554.539,127399.579,63619.726,113252.221,17503.338,-204445.684,32368.589
1.724,09-21-2026 21:18:31:065,-184118.74,170723.831,127355.591,65487.84,112885.34,21731.484,-204288.149,35781.567
1.728,09-21-2026 21:18:31:069,-171376.457,172658.598,126475.826,70512.422,111873.253,39756.735,-200822.377,40599.887
1.732,09-21-2026 21:18:31:073,-165483.152,173577.612,126024.947,71671.941,111708.788,45542.618,-194442.206,40332.203
1.736,09-21-2026 21:18:31:077,-173606.357,172344.199,126541.808,67484.789,112467.854,32413.114,-200192.237,35246.198
1.74,09-21-2026 21:18:31:081,-185233.69,170578.724,127388.582,63555.308,113239.57,17280.804,-204366.917,32234.747
1.744,09-21-2026 21:18:31:085,-184437.297,170675.462,127377.585,65294.586,112910.642,21063.882,-204288.149,35513.882
1.748,09-21-2026 21:18:31:089,-171535.736,172634.414,126486.823,70448.005,111911.206,39311.667,-200979.912,40466.045
1.752,09-21-2026 21:18:31:093,-165801.709,173529.243,126024.947,71607.524,111746.742,45320.084,-194757.276,40265.282
1.756,09-21-2026 21:18:31:097,-173606.357,172344.199,126541.808,67484.789,112480.505,32413.114,-200034.702,35246.198
1.76,09-21-2026 21:18:31:101,-185552.247,170530.354,127366.588,63490.89,113252.221,17280.804,-204366.917,32167.826
1.764,09-21-2026 21:18:31:105,-184596.575,170651.277,127377.585,65230.169,112923.293,20841.348,-204445.684,35446.961
1.768,09-21-2026 21:18:31:109,-171854.293,172561.86,126486.823,70383.587,111936.508,39089.133,-201294.983,40399.124
1.772,09-21-2026 21:18:31:113,-166120.266,173480.874,126046.941,71478.688,111759.393,44875.016,-195387.417,40064.518
1.776,09-21-2026 21:18:31:117,-175358.421,172078.168,126651.779,66969.447,112594.365,30187.774,-200979.912,34643.908
1.78,09-21-2026 21:18:31:121,-185711.525,170506.17,127399.579,63619.726,113315.477,17280.804,-204445.684,32234.747
1.784,09-21-2026 21:18:31:125,-184278.018,170675.462,127322.6,65487.84,112897.991,21731.484,-204288.149,35580.803
1.788,09-21-2026 21:18:31:129,-171376.457,172634.414,126442.835,70641.258,111873.253,39979.269,-200901.145,40532.966
1.792,09-21-2026 21:18:31:133,-165801.709,173529.243,126002.953,71607.524,111708.788,45320.084,-195151.114,40131.44
1.796,09-21-2026 21:18:31:137,-174721.307,172174.906,126585.797,67162.701,112518.458,30855.376,-200664.842,34710.829
1.8,09-21-2026 21:18:31:141,-185552.247,170530.354,127366.588,63619.726,113277.523,17503.338,-204445.684,32167.826
1.804,09-21-2026 21:18:31:145,-184047.304,170731.028,127326.712,65508.269,112858.115,21915.796,-204411.486,35493.855
1.808,09-21-2026 21:18:31:149,-171435.421,172639.286,126443.371,70537.233,111864.357,39892.321,-200949.425,40405.651
1.812,09-21-2026 21:18:31:153,-165518.736,173581.636,125979.617,71746.73,111673.249,45592.194,-194794.648,40209.179
1.816,09-21-2026 21:18:31:157,-173926.657,172309.464,126498.58,67418.002,112463.16,32000.188,-200487.816,34969.93
1.82,09-21-2026 21:18:31:161,-184825.815,170636.793,127293.587,63789.509,113214.849,18188.956,-204411.486,32219.324
1.824,09-21-2026 21:18:31:165,-184514.41,170683.911,127315.671,65253.638,112896.337,21038.892,-204334.552,35231.892
1.828,09-21-2026 21:18:31:169,-171591.124,172639.286,126443.371,70473.575,111889.838,39453.869,-201026.359,40340.16
1.832,09-21-2026 21:18:31:173,-165518.736,173581.636,125979.617,71746.73,111698.73,45592.194,-194948.518,40274.67
1.836,09-21-2026 21:18:31:177,-172992.444,172474.375,126465.455,67736.291,112412.198,33315.543,-200026.208,35297.383
1.84,09-21-2026 21:18:31:181,-184670.113,170683.911,127315.671,63662.194,113214.849,18188.956,-204411.486,32153.834
1.844,09-21-2026 21:18:31:185,-184825.815,170636.793,127381.921,65062.665,112934.558,20161.989,-204565.356,35035.421
1.848,09-21-2026 21:18:31:189,-172213.933,172545.051,126487.538,70218.944,111940.8,38796.191,-201718.772,40209.179
1.852,09-21-2026 21:18:31:193,-165518.736,173581.636,125990.659,71746.73,111711.471,45592.194,-195333.191,40274.67
1.856,09-21-2026 21:18:31:197,-172525.337,172521.493,126432.33,67927.264,112412.198,33973.221,-200026.208,35493.855
1.86,09-21-2026 21:18:31:201,-184670.113,170683.911,127304.629,63662.194,113214.849,17969.73,-204488.421,32088.343
1.864,09-21-2026 21:18:31:205,-185292.922,170589.676,127381.921,64871.691,112960.039,19723.537,-204565.356,34838.949
1.868,09-21-2026 21:18:31:209,-172213.933,172545.051,126487.538,70218.944,111940.8,38357.739,-202103.445,40143.688
1.872,09-21-2026 21:18:31:213,-166141.545,173510.96,126001.701,71555.757,111698.73,44934.517,-196333.342,40078.198
1.876,09-21-2026 21:18:31:217,-174238.062,172285.905,126542.747,67354.344,112475.9,31561.736,-200795.555,34904.439
1.88,09-21-2026 21:18:31:221,-185292.922,170589.676,127337.754,63662.194,113265.811,17750.504,-204565.356,32088.343
1.884,09-21-2026 21:18:31:225,-184670.113,170660.352,127348.796,65189.98,112909.077,20819.666,-204565.356,35100.911
1.888,09-21-2026 21:18:31:229,-172058.23,172568.61,126454.413,70346.26,111902.578,39234.643,-201872.641,40209.179
1.892,09-21-2026 21:18:31:233,-165830.14,173558.077,125990.659,71619.415,111647.768,45372.968,-195948.669,40209.179
1.896,09-21-2026 21:18:31:237,-173770.955,172356.581,126509.622,67481.66,112412.198,32219.414,-200564.751,34969.93
1.9,09-21-2026 21:18:31:241,-184981.517,170636.793,127304.629,63725.852,113227.59,17969.73,-204565.356,32153.834
1.904,09-21-2026 21:18:31:245,-184578.292,170658.832,127314.24,65207.146,112889.184,20822.036,-204607.645,35029.922
1.908,09-21-2026 21:18:31:249,-172084.829,172583.541,126437.694,70372.098,111897.124,39209.251,-201832.095,40229.832
1.912,09-21-2026 21:18:31:253,-165517.752,173606.804,125976.354,71820.804,111623.002,45698.857,-195782.819,40294.831
1.916,09-21-2026 21:18:31:257,-173686.555,172388.634,126506.895,67537.673,112419.261,32287.005,-200622.24,35094.921
1.92,09-21-2026 21:18:31:261,-184738.464,170683.196,127314.24,63821.428,113228.573,18226.194,-204607.645,32234.971
1.924,09-21-2026 21:18:31:265,-184738.464,170658.832,127337.307,65081.172,112915.291,20605.716,-204607.645,35029.922
1.928,09-21-2026 21:18:31:269,-171924.656,172607.904,126437.694,70372.098,111884.071,38992.931,-201974.431,40229.832
1.932,09-21-2026 21:18:31:273,-165357.58,173606.804,125941.753,71757.817,111623.002,45698.857,-196067.491,40359.83
1.936,09-21-2026 21:18:31:277,-172565.347,172534.814,126414.627,67915.597,112353.994,33584.927,-200337.568,35419.915
1.94,09-21-2026 21:18:31:281,-184257.947,170780.649,127256.573,63884.415,113176.359,18658.834,-204607.645,32234.971
1.944,09-21-2026 21:18:31:285,-184898.637,170634.469,127360.374,64892.21,112928.344,19956.755,-204749.981,34834.926
1.948,09-21-2026 21:18:31:289,-172405.174,172534.814,126483.828,70183.136,111936.285,38343.971,-202401.439,40164.833
1.952,09-21-2026 21:18:31:293,-165357.58,173631.167,125953.287,71820.804,111623.002,45698.857,-196138.659,40424.829
1.956,09-21-2026 21:18:31:297,-171764.484,172680.995,126368.493,68167.546,112314.834,34882.848,-200052.896,35744.91
1.96,09-21-2026 21:18:31:301,-183777.429,170829.376,127256.573,63884.415,113163.306,18875.154,-204607.645,32234.971
1.964,09-21-2026 21:18:31:305,-185699.5,170537.015,127406.508,64577.274,112993.611,18875.154,-204821.149,34509.931
1.968,09-21-2026 21:18:31:309,-172725.519,172486.087,126506.895,70057.162,111988.498,37695.01,-202828.446,40034.835
1.972,09-21-2026 21:18:31:313,-165677.925,173606.804,125953.287,71757.817,111662.163,45482.537,-196708.002,40424.829
1.976,09-21-2026 21:18:31:317,-171444.138,172729.721,126333.893,68356.507,112314.834,35315.488,-199768.224,35939.906
1.98,09-21-2026 21:18:31:321,-184097.774,170805.013,127233.506,63821.428,113189.413,18442.514,-204607.645,32169.972
1.984,09-21-2026 21:18:31:325,-185699.5,170537.015,127406.508,64577.274,113019.718,18442.514,-204821.149,34444.932
1.988,09-21-2026 21:18:31:329,-173045.864,172437.361,126518.429,69931.188,112027.658,37262.37,-203041.95,39969.836
1.992,09-21-2026 21:18:31:333,-165838.097,173558.077,125976.354,71694.83,111688.27,45049.896,-197277.346,40359.83
1.996,09-21-2026 21:18:31:337,-173206.037,172461.724,126449.228,67726.635,112432.314,32935.966,-200906.912,35354.916
2,09-21-2026 21:18:31:341,-184578.292,170707.559,127291.173,63821.428,113280.787,18226.194,-204749.981,32169.972
2.004,09-21-2026 21:18:31:345,-185302.533,170579.081,127374.679,64828.016,113016.813,19633.325,-204856.241,34683.783
2.008,09-21-2026 21:18:31:349,-172492.301,172521.448,126482.845,70208.528,112003.25,38259.928,-202860.678,40141.766
2.012,09-21-2026 21:18:31:353,-165446.674,173603.272,125935.853,71791.032,111669.673,45491.433,-197185.793,40470.56
2.016,09-21-2026 21:18:31:357,-172492.301,172546.035,126387.716,67929.723,112388.147,33438.925,-200615.668,35472.889
2.02,09-21-2026 21:18:31:361,-184341.766,170751.19,127267.659,63878.514,113273.411,18318.506,-204731.519,32250.706
2.024,09-21-2026 21:18:31:365,-184982.277,170628.255,127374.679,64891.316,113003.983,19633.325,-204918.603,34683.783
2.028,09-21-2026 21:18:31:369,-172492.301,172496.861,126482.845,70081.928,112003.25,38040.792,-202923.039,40076.007
2.032,09-21-2026 21:18:31:373,-165126.418,173652.446,125935.853,71854.332,111644.013,45710.569,-197185.793,40470.56
2.036,09-21-2026 21:18:31:377,-172172.045,172570.622,126387.716,67993.023,112375.317,33658.061,-200740.391,35538.648
2.04,09-21-2026 21:18:31:381,-183861.382,170800.364,127255.768,63941.814,113247.751,18537.643,-204793.88,32250.706
2.044,09-21-2026 21:18:31:385,-184982.277,170603.668,127362.788,64764.716,113029.642,19414.189,-204918.603,34618.024
2.048,09-21-2026 21:18:31:389,-172492.301,172496.861,126482.845,70081.928,112028.91,37821.655,-202985.4,40076.007
2.052,09-21-2026 21:18:31:393,-164966.29,173652.446,125923.962,71917.632,111656.843,45710.569,-197061.07,40602.078
2.056,09-21-2026 21:18:31:397,-171051.15,172742.73,126328.26,68372.824,112349.658,35192.017,-200303.862,35933.201
2.06,09-21-2026 21:18:31:401,-182740.487,170947.885,127196.312,64131.715,113196.431,19414.189,-204731.519,32382.224
2.064,09-21-2026 21:18:31:405,-185142.405,170554.494,127410.353,64511.515,113068.132,18537.643,-204980.964,34354.989
2.068,09-21-2026 21:18:31:409,-172492.301,172472.274,126530.409,69955.328,112054.57,37164.246,-203234.846,39944.49
2.072,09-21-2026 21:18:31:413,-164966.29,173652.446,125923.962,71854.332,111669.673,45491.433,-197310.516,40536.319
2.076,09-21-2026 21:18:31:417,-169770.127,172914.839,126256.913,68752.625,112285.508,36506.836,-199617.886,36261.995
2.08,09-21-2026 21:18:31:421,-182580.359,170972.472,127172.53,64068.414,113183.601,19414.189,-204606.796,32316.465
2.084,09-21-2026 21:18:31:425,-185302.533,170529.907,127434.135,64321.615,113093.792,17880.233,-204980.964,34157.712
2.088,09-21-2026 21:18:31:429,-173132.813,172373.926,126577.974,69702.127,112118.719,36287.699,-203609.014,39812.972
2.092,09-21-2026 21:18:31:433,-165126.418,173603.272,125983.417,71854.332,111695.333,45272.296,-197871.768,40602.078
2.096,09-21-2026 21:18:31:437,-170250.511,172841.078,126316.369,68626.025,112323.998,36068.563,-199929.693,36261.995
2.1,09-21-2026 21:18:31:441,-182740.487,170947.885,127231.986,64068.414,113209.261,19195.052,-204669.157,32316.465
2.104,09-21-2026 21:18:31:445,-185773.484,170480.778,127476.111,64291.708,113125.531,17643.886,-205014.76,34100.045
2.108,09-21-2026 21:18:31:449,-173192.85,172359.577,126602.784,69717.147,112135.26,36198.293,-203718.225,39840.509
2.112,09-21-2026 21:18:31:453,-165612.211,173546.186,126012.698,71712.711,111716.299,44929.778,-198362.97,40566.315
2.116,09-21-2026 21:18:31:457,-171418.657,172656.229,126402.155,68220.475,112389.176,34451.995,-200674.185,35881.568
2.12,09-21-2026 21:18:31:461,-183515.422,170826.873,127275.482,63979.902,113290.577,18735.322,-204789.276,32318.521
2.124,09-21-2026 21:18:31:465,-185289.614,170554.941,127440.706,64603.515,113100.14,18735.322,-205014.76,34429.957
2.128,09-21-2026 21:18:31:469,-173031.559,172384.298,126579.181,69841.87,112109.868,36853.154,-203492.74,39906.492
2.132,09-21-2026 21:18:31:473,-165289.63,173620.349,126000.896,71837.434,111678.211,45366.352,-197968.372,40632.297
2.136,09-21-2026 21:18:31:477,-171257.367,172705.671,126390.353,68282.836,112376.48,34670.283,-200617.814,35947.551
2.14,09-21-2026 21:18:31:481,-183192.841,170901.036,127263.68,64104.624,113277.881,18953.609,-204789.276,32384.504
2.144,09-21-2026 21:18:31:485,-185450.904,170530.22,127440.706,64541.154,113112.836,18517.034,-205014.76,34297.992
2.148,09-21-2026 21:18:31:489,-173031.559,172409.019,126590.982,69841.87,112109.868,36853.154,-203549.111,39906.492
2.152,09-21-2026 21:18:31:493,-165289.63,173595.628,126000.896,71837.434,111678.211,45366.352,-198024.744,40632.297
2.156,09-21-2026 21:18:31:497,-170934.787,172755.113,126366.75,68469.92,112338.392,35106.857,-200279.588,36013.533
2.16,09-21-2026 21:18:31:501,-183031.551,170925.757,127251.879,64104.624,113252.489,19390.183,-204732.904,32384.504
2.164,09-21-2026 21:18:31:505,-185289.614,170579.662,127452.508,64541.154,113100.14,18517.034,-205014.76,34232.01
2.168,09-21-2026 21:18:31:509,-173354.14,172359.577,126614.586,69717.147,112135.26,36416.58,-203549.111,39774.527
2.172,09-21-2026 21:18:31:513,-165289.63,173620.349,126012.698,71899.795,111678.211,45366.352,-197855.63,40698.28
2.176,09-21-2026 21:18:31:517,-170128.336,172928.16,126319.543,68844.088,112313.001,36853.154,-199828.619,36409.427
2.18,09-21-2026 21:18:31:521,-182063.81,171098.804,127216.473,64416.431,113201.706,20263.332,-204676.533,32516.468
2.184,09-21-2026 21:18:31:525,-185773.484,170505.499,127499.715,64229.347,113163.619,17643.886,-205014.76,33968.08
2.188,09-21-2026 21:18:31:529,-173676.72,172334.855,126661.793,69592.425,112198.739,35761.718,-203774.596,39708.545
2.192,09-21-2026 21:18:31:533,-165612.211,173595.628,126036.301,71837.434,111728.994,45148.065,-198250.228,40698.28
2.196,09-21-2026 21:18:31:537,-169321.885,173027.044,126284.138,69155.895,112287.609,37726.302,-199377.65,36805.321
2.2,09-21-2026 21:18:31:541,-182225.1,171098.804,127204.672,64291.708,113214.402,20263.332,-204563.791,32516.468
2.204,09-21-2026 21:18:31:545,-186294.95,170458.203,127550.99,64065.956,113205.774,16976.731,-205047.438,33825.968
2.208,09-21-2026 21:18:31:549,-174488.491,172202.712,126715.481,69298.32,112272.902,34969.394,-204011.211,39529.462
2.212,09-21-2026 21:18:31:553,-166192.06,173486.864,126094.818,71610.295,111768.646,44298.922,-199048.23,40603.061
2.216,09-21-2026 21:18:31:557,-171457.102,172711.527,126405.15,68385.699,112411.572,35191.525,-200684.378,36174.466
2.22,09-21-2026 21:18:31:561,-183582.656,170870.101,127300.337,64065.956,113331.838,18975.916,-204774.747,32416.869
2.224,09-21-2026 21:18:31:565,-186135.404,170482.432,127515.182,64370.163,113218.381,17865.258,-205047.438,34161.467
2.228,09-21-2026 21:18:31:569,-174328.944,172251.171,126679.674,69541.686,112260.295,35857.92,-203738.52,39730.762
2.232,09-21-2026 21:18:31:573,-166032.513,173535.323,126070.947,71792.82,111756.04,45187.449,-198339.233,40804.361
2.236,09-21-2026 21:18:31:577,-171138.009,172784.215,126381.278,68629.064,112386.359,35857.92,-200193.533,36375.765
2.24,09-21-2026 21:18:31:581,-183104.015,170942.789,127276.466,64187.639,113319.232,19642.311,-204665.67,32551.069
2.244,09-21-2026 21:18:31:585,-186135.404,170458.203,127515.182,64248.48,113230.987,17865.258,-204992.9,34161.467
2.248,09-21-2026 21:18:31:589,-174328.944,172251.171,126691.61,69541.686,112247.689,35635.789,-203793.058,39797.862
2.252,09-21-2026 21:18:31:593,-166192.06,173511.094,126059.011,71731.978,111756.04,44965.317,-198502.847,40871.461
2.256,09-21-2026 21:18:31:597,-170818.915,172808.444,126357.407,68689.906,112348.54,36080.052,-199866.304,36577.065
2.26,09-21-2026 21:18:31:601,-183263.562,170942.789,127264.53,64126.797,113294.019,19642.311,-204611.132,32618.169
2.264,09-21-2026 21:18:31:605,-186135.404,170458.203,127503.246,64248.48,113205.774,17865.258,-204992.9,34161.467
2.268,09-21-2026 21:18:31:609,-174648.038,172202.712,126667.738,69359.162,112247.689,35635.789,-203629.443,39797.862
2.272,09-21-2026 21:18:31:613,-166032.513,173535.323,126035.139,71792.82,111730.827,45187.449,-198121.08,40938.561
2.276,09-21-2026 21:18:31:617,-170180.728,172905.361,126309.663,68872.43,112323.327,37190.71,-199593.613,36845.465
2.28,09-21-2026 21:18:31:621,-182146.735,171088.165,127192.915,64370.163,113218.381,20752.969,-204556.594,32819.469
2.284,09-21-2026 21:18:31:625,-186294.95,170458.203,127515.182,64065.956,113218.381,17420.994,-204992.9,34027.268
2.288,09-21-2026 21:18:31:629,-174807.584,172202.712,126715.481,69298.32,112272.902,34969.394,-203847.597,39730.762
2.292,09-21-2026 21:18:31:633,-166351.606,173511.094,126047.075,71671.137,111730.827,44743.186,-198448.309,40938.561
2.296,09-21-2026 21:18:31:637,-169542.541,173026.508,126249.984,69176.637,112272.902,38079.237,-199102.768,37113.865
2.3,09-21-2026 21:18:31:641,-181987.188,171160.852,127157.107,64431.004,113180.561,20975.101,-204447.517,32819.469
2.304,09-21-2026 21:18:31:645,-186776.675,170404.604,127549.827,63858.755,113230.451,16405.689,-205008.099,33743.311
2.308,09-21-2026 21:18:31:649,-175426.906,172104.185,126747.132,69005.378,112317.426,34247.209,-203952.918,39495.443
2.312,09-21-2026 21:18:31:653,-166509.231,173483.556,126088.202,71641.454,111762.209,44635.942,-198677.012,40950.005
2.316,09-21-2026 21:18:31:657,-169265.603,173064.819,126243.949,69319.197,112268.074,38764.049,-199078.986,37313.6
2.32,09-21-2026 21:18:31:661,-181750.349,171168.184,127166.45,64486.392,113181.098,21148.371,-204405.138,32883.797
2.324,09-21-2026 21:18:31:665,-187100.954,170355.34,127609.73,63733.228,113292.141,16179.847,-205008.099,33677.195
2.328,09-21-2026 21:18:31:669,-175751.186,172054.922,126819.015,69005.378,112366.779,33795.525,-204153.905,39495.443
2.332,09-21-2026 21:18:31:673,-166995.65,173409.661,126136.124,71515.926,111786.885,44184.258,-199380.466,40883.889
2.336,09-21-2026 21:18:31:677,-170724.859,172867.766,126351.774,68817.087,112342.103,36731.471,-199933.18,36850.785
2.34,09-21-2026 21:18:31:681,-183209.605,170971.131,127286.256,64172.574,113304.48,19793.319,-204606.125,32685.448
2.344,09-21-2026 21:18:31:685,-186614.536,170429.235,127561.808,64109.81,113255.127,17309.057,-205008.099,34007.777
2.348,09-21-2026 21:18:31:689,-175426.906,172104.185,126747.132,69130.906,112317.426,34698.893,-203902.671,39561.56
2.352,09-21-2026 21:18:31:693,-166509.231,173483.556,126100.183,71704.217,111737.533,44861.784,-198827.752,40950.005
2.356,09-21-2026 21:18:31:697,-170400.58,172917.029,126339.793,68942.615,112317.426,37183.155,-199782.44,36916.901
2.36,09-21-2026 21:18:31:701,-182561.047,171045.026,127262.295,64360.865,113279.803,20245.003,-204606.125,32751.564
2.364,09-21-2026 21:18:31:705,-186776.675,170404.604,127573.788,63984.282,113292.141,17309.057,-205008.099,33941.66
2.368,09-21-2026 21:18:31:709,-175426.906,172104.185,126795.054,69130.906,112354.441,34473.051,-203802.178,39627.676
2.372,09-21-2026 21:18:31:713,-166509.231,173483.556,126112.163,71704.217,111749.871,44861.784,-198626.765,41082.238
2.376,09-21-2026 21:18:31:717,-170076.301,172941.661,126351.774,69068.142,112329.765,37408.997,-199480.96,37049.134
2.38,09-21-2026 21:18:31:721,-182398.907,171094.289,127262.295,64423.628,113267.465,20696.687,-204555.879,32883.797
2.384,09-21-2026 21:18:31:725,-186614.536,170453.867,127573.788,64047.046,113279.803,17309.057,-205008.099,33941.66
2.388,09-21-2026 21:18:31:729,-175426.906,172104.185,126807.034,69130.906,112354.441,34473.051,-203902.671,39627.676
2.392,09-21-2026 21:18:31:733,-166509.231,173483.556,126124.144,71704.217,111774.547,44861.784,-198626.765,41082.238
2.396,09-21-2026 21:18:31:737,-168941.324,173138.714,126291.871,69507.488,112268.074,39215.733,-198626.765,37511.949
2.4,09-21-2026 21:18:31:741,-181263.93,171266.71,127178.431,64737.447,113181.098,22051.739,-204354.892,33082.146
2.404,09-21-2026 21:18:31:745,-186654.635,170439.964,127599.091,63882.895,113276.003,16612.845,-204998.13,33691.634
2.408,09-21-2026 21:18:31:749,-175902.104,172047.948,126849.95,68887.138,112412.332,33550.997,-204028.154,39346.536
2.412,09-21-2026 21:18:31:753,-166754.43,173461.026,126160.264,71674.311,111783.086,44617.256,-198871.964,41036.506
2.416,09-21-2026 21:18:31:757,-168519.77,173193.028,126255.393,69647.276,112251.936,39874.573,-198565.656,37786.563
2.42,09-21-2026 21:18:31:761,-180877.156,171341.41,127171.01,64833.068,113164.96,22258.895,-204232.359,33171.643
2.424,09-21-2026 21:18:31:765,-187136.091,170366.874,127658.546,63629.516,113325.356,15935.319,-204998.13,33496.637
2.428,09-21-2026 21:18:31:769,-176383.561,171974.858,126921.296,68697.103,112437.008,32873.471,-204181.308,39281.537
2.432,09-21-2026 21:18:31:773,-167235.886,173387.936,126207.829,71484.276,111807.762,43939.73,-199484.581,40971.508
2.436,09-21-2026 21:18:31:777,-170124.626,172973.758,126362.413,69203.862,112301.289,37841.995,-199331.427,37331.571
2.44,09-21-2026 21:18:31:781,-182642.497,171073.412,127266.139,64389.654,113263.665,20678.001,-204487.616,32911.647
2.444,09-21-2026 21:18:31:785,-186975.606,170415.601,127610.982,63946.24,113313.018,17064.529,-204998.13,33821.632
2.448,09-21-2026 21:18:31:789,-176383.561,171999.222,126838.058,68887.138,112399.994,33550.997,-203977.103,39411.535
2.452,09-21-2026 21:18:31:793,-167075.401,173436.662,126148.373,71674.311,111758.409,44617.256,-198923.015,41101.505
2.456,09-21-2026 21:18:31:797,-169803.655,173022.485,126302.958,69330.552,112288.95,38519.521,-199025.118,37396.57
2.46,09-21-2026 21:18:31:801,-182161.04,171146.503,127242.357,64579.688,113251.327,21129.685,-204385.514,32911.647
2.464,09-21-2026 21:18:31:805,-186975.606,170415.601,127610.982,63946.24,113313.018,17064.529,-204947.079,33821.632
2.468,09-21-2026 21:18:31:809,-176223.076,172023.585,126849.95,68950.482,112399.994,33776.839,-203875,39411.535
2.472,09-21-2026 21:18:31:813,-167075.401,173436.662,126148.373,71674.311,111758.409,44617.256,-198667.759,41166.504
2.476,09-21-2026 21:18:31:817,-169482.683,173071.211,126314.849,69457.241,112264.274,38745.363,-198616.707,37526.567
2.48,09-21-2026 21:18:31:821,-182161.04,171170.866,127242.357,64579.688,113238.989,21355.527,-204283.411,32976.646
2.484,09-21-2026 21:18:31:825,-186975.606,170415.601,127622.873,63946.24,113313.018,17064.529,-204947.079,33821.632
2.488,09-21-2026 21:18:31:829,-176704.532,171974.858,126897.514,68760.448,112437.008,33325.155,-203875,39346.536
2.492,09-21-2026 21:18:31:833,-167075.401,173436.662,126195.938,71674.311,111758.409,44617.256,-198769.861,41166.504
2.496,09-21-2026 21:18:31:837,-169161.712,173144.302,126302.958,69647.276,112251.936,39648.731,-198514.604,37786.563
2.5,09-21-2026 21:18:31:841,-181037.641,171341.41,127194.792,64959.757,113177.298,22484.737,-204181.308,33301.641
2.504,09-21-2026 21:18:31:845,-187161.17,170418.015,127642.811,63749.679,113336.532,16391.607,-204960.266,33576.12
2.508,09-21-2026 21:18:31:849,-176964.483,171936.011,126943.872,68678.864,112479.298,32719.825,-204038.302,39257.576
2.512,09-21-2026 21:18:31:853,-167405.089,173405.817,126197.547,71623.572,111798.553,44285.645,-198852.25,41236.51
2.516,09-21-2026 21:18:31:857,-168201.705,173309.436,126221.24,70023.187,112214.564,40883.933,-197642.171,38172.354
2.52,09-21-2026 21:18:31:861,-180628.917,171430.012,127133.414,65029.987,113134.83,23195.031,-203980.679,33384.61
2.524,09-21-2026 21:18:31:865,-187320.493,170393.919,127666.504,63621.648,113349.138,15711.265,-204960.266,33384.61
2.528,09-21-2026 21:18:31:869,-177442.453,171863.725,126991.257,68422.802,112517.117,31812.701,-204211.17,39066.066
2.532,09-21-2026 21:18:31:873,-167723.735,173381.722,126233.086,71495.542,111811.159,43832.084,-199370.855,41108.837
2.536,09-21-2026 21:18:31:877,-168520.351,173261.246,126244.933,69959.172,112227.17,40657.153,-197987.908,38236.19
2.54,09-21-2026 21:18:31:881,-180628.917,171405.917,127157.107,65029.987,113147.436,23195.031,-203980.679,33384.61
2.544,09-21-2026 21:18:31:885,-187639.14,170345.729,127702.043,63493.617,113374.351,15484.484,-204960.266,33256.937
2.548,09-21-2026 21:18:31:889,-177920.422,171791.44,127014.95,68294.772,112542.33,31359.14,-204211.17,38938.393
2.552,09-21-2026 21:18:31:893,-167883.059,173333.531,126256.779,71495.542,111823.766,43605.303,-199601.346,41045
2.556,09-21-2026 21:18:31:897,-169635.614,173068.484,126327.858,69511.064,112277.596,39069.687,-198967.495,37789.334
2.56,09-21-2026 21:18:31:901,-182062.826,171213.156,127228.186,64645.894,113235.681,21607.565,-204268.793,33129.264
2.564,09-21-2026 21:18:31:905,-187479.816,170369.824,127630.964,63749.679,113374.351,16391.607,-204960.266,33576.12
2.568,09-21-2026 21:18:31:909,-177442.453,171863.725,126920.179,68550.833,112491.904,32266.263,-204153.547,39193.739
2.572,09-21-2026 21:18:31:913,-167723.735,173357.627,126197.547,71495.542,111785.947,44058.865,-199370.855,41172.673
2.576,09-21-2026 21:18:31:917,-169157.644,173164.865,126268.625,69703.11,112227.17,39750.029,-198276.022,37980.844
2.58,09-21-2026 21:18:31:921,-181744.18,171261.346,127180.8,64709.91,113197.862,22061.127,-204153.547,33193.1
2.584,09-21-2026 21:18:31:925,-187161.17,170418.015,127619.118,63813.694,113349.138,16618.388,-204960.266,33639.957
2.588,09-21-2026 21:18:31:929,-177442.453,171863.725,126955.718,68486.818,112504.511,32266.263,-203865.433,39129.903
2.592,09-21-2026 21:18:31:933,-167405.089,173405.817,126209.393,71623.572,111773.34,44285.645,-198794.627,41236.51
2.596,09-21-2026 21:18:31:937,-168838.998,173188.96,126292.318,69767.126,112214.564,39976.81,-198045.531,38044.681
2.6,09-21-2026 21:18:31:941,-181266.21,171333.631,127204.493,64901.956,113185.255,22287.908,-204095.924,33256.937
2.604,09-21-2026 21:18:31:945,-187004.261,170433.84,127634.764,63821.83,113357.274,16838.016,-204877.475,33630.166
2.608,09-21-2026 21:18:31:949,-177317.462,171879.103,126981.378,68527.587,112500.666,32116.238,-203814.292,39184.843
2.612,09-21-2026 21:18:31:953,-167474.424,173395.446,126246.318,71621.784,111810.265,44248.944,-198560.917,41330.968
2.616,09-21-2026 21:18:31:957,-167943.14,173348.06,126257.986,70139.148,112193.821,41103.428,-197185.033,38427.387
2.62,09-21-2026 21:18:31:961,-179973.519,171500.018,127133.057,65175.541,113139.926,23803.088,-203814.292,33630.166
2.624,09-21-2026 21:18:31:965,-186848.022,170457.532,127669.767,63628.443,113382.845,16163.977,-204877.475,33440.803
2.628,09-21-2026 21:18:31:969,-177942.416,171784.332,127051.384,68205.275,112590.162,30992.839,-203876.833,38932.358
2.632,09-21-2026 21:18:31:973,-167630.663,173371.753,126281.321,71557.322,111823.051,44024.264,-198748.538,41330.968
2.636,09-21-2026 21:18:31:977,-167630.663,173395.446,126246.318,70268.073,112181.036,42002.146,-196934.873,38679.873
2.64,09-21-2026 21:18:31:981,-179504.803,171594.789,127121.389,65368.928,113088.785,24477.127,-203564.132,33756.409
2.644,09-21-2026 21:18:31:985,-187316.738,170386.454,127728.105,63435.055,113433.986,15714.617,-204877.475,33314.56
2.648,09-21-2026 21:18:31:989,-178254.894,171736.946,127109.722,68011.888,112641.303,30543.48,-204064.453,38869.237
2.652,09-21-2026 21:18:31:993,-168099.379,173276.982,126316.324,71363.934,111874.191,43350.225,-199311.399,41204.726
2.656,09-21-2026 21:18:31:997,-168724.333,173229.596,126327.992,69881.299,112257.747,40204.709,-197685.355,38301.145
2.66,09-21-2026 21:18:32:001,-181223.429,171310.475,127226.398,64853.229,113229.422,22455.01,-203876.833,33377.681
2.664,09-21-2026 21:18:32:005,-187160.499,170410.147,127669.767,63692.905,113421.2,16388.657,-204877.475,33567.045
2.668,09-21-2026 21:18:32:009,-178098.655,171760.639,127039.716,68205.275,112602.948,31217.519,-203814.292,38932.358
2.672,09-21-2026 21:18:32:013,-167630.663,173371.753,126292.989,71557.322,111823.051,44024.264,-198748.538,41330.968
2.676,09-21-2026 21:18:32:017,-168255.617,173300.674,126316.324,70074.686,112232.177,40878.748,-197310.114,38490.509
2.68,09-21-2026 21:18:32:021,-180598.474,171428.939,127214.73,65111.079,113203.852,23129.049,-203751.752,33503.924
2.684,09-21-2026 21:18:32:025,-187004.261,170433.84,127693.102,63757.368,113433.986,16613.336,-204877.475,33503.924
2.688,09-21-2026 21:18:32:029,-177942.416,171784.332,127063.051,68269.738,112590.162,31217.519,-203751.752,38932.358
2.692,09-21-2026 21:18:32:033,-167630.663,173371.753,126269.654,71557.322,111823.051,44024.264,-198623.457,41330.968
2.696,09-21-2026 21:18:32:037,-168099.379,173324.367,126281.321,70074.686,112206.607,41103.428,-197122.493,38427.387
2.7,09-21-2026 21:18:32:041,-180442.236,171452.632,127191.395,65111.079,113178.282,23353.728,-203689.212,33440.803
2.704,09-21-2026 21:18:32:045,-186912.663,170444.524,127672.538,63690.223,113425.268,16698.228,-204840.863,33469.815
2.708,09-21-2026 21:18:32:049,-178127.757,171779.593,127083.302,68155.654,112605.719,30963.29,-203729.356,38829.048
2.712,09-21-2026 21:18:32:053,-167745.595,173357.403,126313.687,71536.624,111838.205,43891.003,-198588.633,41312.595
2.716,09-21-2026 21:18:32:057,-167745.595,173381.677,126289.636,70260.786,112189.44,41439.195,-196851.903,38632.979
2.72,09-21-2026 21:18:32:061,-179884.738,171536.853,127155.453,65285.02,113152.085,24053.651,-203590.417,33665.885
2.724,09-21-2026 21:18:32:065,-186752.938,170493.072,127672.538,63754.015,113412.26,16698.228,-204840.863,33469.815
2.728,09-21-2026 21:18:32:069,-178606.934,171706.771,127083.302,67964.279,112644.745,30294.616,-203798.825,38763.692
2.732,09-21-2026 21:18:32:073,-167745.595,173357.403,126277.611,71536.624,111838.205,43891.003,-198519.164,41377.952
2.736,09-21-2026 21:18:32:077,-167266.419,173478.773,126205.459,70515.954,112163.423,42553.653,-196296.149,38959.761
2.74,09-21-2026 21:18:32:081,-178926.385,171706.771,127059.251,65603.979,113074.033,25168.109,-203312.54,33927.311
2.744,09-21-2026 21:18:32:085,-187072.389,170468.798,127684.564,63498.847,113438.277,16029.554,-204840.863,33208.389
2.748,09-21-2026 21:18:32:089,-178926.385,171682.497,127143.428,67836.695,112696.78,29625.941,-204007.233,38567.622
2.752,09-21-2026 21:18:32:093,-168224.772,173308.855,126325.712,71409.04,111877.231,43445.22,-199074.918,41247.239
2.756,09-21-2026 21:18:32:097,-166946.967,173527.321,126217.485,70707.33,112150.414,42999.437,-196087.741,39090.474
2.76,09-21-2026 21:18:32:101,-178606.934,171755.319,127059.251,65667.771,113061.024,25613.892,-203173.602,33992.667
2.764,09-21-2026 21:18:32:105,-187232.114,170444.524,127732.665,63435.055,113464.294,15583.77,-204910.333,33077.676
2.768,09-21-2026 21:18:32:109,-179565.287,171585.401,127215.579,67645.319,112748.815,28734.374,-204215.64,38371.553
2.772,09-21-2026 21:18:32:113,-168544.223,173284.581,126385.838,71409.04,111903.249,42999.437,-199630.672,41247.239
2.776,09-21-2026 21:18:32:117,-168224.772,173333.129,126301.661,70196.995,112215.458,41216.304,-197546.595,38632.979
2.78,09-21-2026 21:18:32:121,-180363.915,171488.306,127191.529,65157.436,113191.111,23384.976,-203729.356,33535.172
2.784,09-21-2026 21:18:32:125,-187232.114,170444.524,127696.589,63626.431,113490.312,16252.445,-204910.333,33339.102
2.788,09-21-2026 21:18:32:129,-179086.11,171658.223,127119.378,67836.695,112696.78,29848.832,-204215.64,38567.622
2.792,09-21-2026 21:18:32:133,-168224.772,173308.855,126313.687,71472.832,111877.231,43445.22,-199491.733,41312.595
2.796,09-21-2026 21:18:32:137,-167585.87,173454.499,126229.51,70452.162,112176.432,42107.87,-196921.372,38894.405
2.8,09-21-2026 21:18:32:141,-180044.464,171561.127,127131.403,65285.02,113165.094,24053.651,-203590.417,33600.528
2.804,09-21-2026 21:18:32:145,-186957.367,170506.93,127684.474,63698.94,113489.775,16656.878,-204909.93,33365.388
2.808,09-21-2026 21:18:32:149,-179181.105,171660.414,127133.28,67760.073,112722.261,29672.969,-204026.008,38505.037
2.812,09-21-2026 21:18:32:153,-168164.735,173353.827,126324.862,71498.894,111876.695,43571.507,-199198.434,41404.327
2.816,09-21-2026 21:18:32:157,-167516.713,173451.996,126251.37,70467.495,112188.904,42247.837,-196886.637,38966.288
2.82,09-21-2026 21:18:32:161,-179667.122,171611.33,127145.529,65439.426,113164.558,24378.288,-203482.056,33760.745
2.824,09-21-2026 21:18:32:165,-186957.367,170482.388,127696.723,63634.478,113502.784,16436.266,-204909.93,33299.495
2.828,09-21-2026 21:18:32:169,-179181.105,171635.872,127157.778,67760.073,112748.279,29452.357,-204094.002,38505.037
2.832,09-21-2026 21:18:32:173,-168326.741,173329.285,126337.111,71498.894,111902.712,43571.507,-199402.416,41404.327
2.836,09-21-2026 21:18:32:177,-167030.697,173550.165,126226.872,70725.345,112162.887,42909.672,-196410.679,39229.86
2.84,09-21-2026 21:18:32:181,-178695.089,171758.583,127084.285,65697.275,113125.531,25481.346,-203346.068,34090.21
2.844,09-21-2026 21:18:32:185,-186633.356,170531.472,127696.723,63634.478,113489.775,16436.266,-204909.93,33299.495
2.848,09-21-2026 21:18:32:189,-179667.122,171586.787,127206.773,67502.224,112787.305,28569.91,-204229.99,38373.251
2.852,09-21-2026 21:18:32:193,-168326.741,173304.742,126373.857,71434.432,111928.73,43130.284,-199674.392,41404.327
2.856,09-21-2026 21:18:32:197,-166706.686,173599.249,126202.375,70854.27,112162.887,43571.507,-196274.691,39427.538
2.86,09-21-2026 21:18:32:201,-177885.062,171905.836,127035.29,65955.125,113060.488,26584.405,-203006.098,34353.782
2.864,09-21-2026 21:18:32:205,-186957.367,170531.472,127733.469,63441.09,113502.784,15774.431,-204909.93,33101.816
2.868,09-21-2026 21:18:32:209,-180153.138,171513.161,127292.514,67308.836,112839.34,27687.463,-204365.978,38175.573
2.872,09-21-2026 21:18:32:213,-168812.757,173255.658,126435.101,71305.507,111954.747,42689.06,-200082.356,41338.434
2.876,09-21-2026 21:18:32:217,-166706.686,173599.249,126226.872,70918.732,112149.878,43571.507,-196342.685,39559.324
2.88,09-21-2026 21:18:32:221,-177723.056,171930.378,127035.29,66019.588,113034.47,26805.017,-202938.104,34419.675
2.884,09-21-2026 21:18:32:225,-187281.378,170482.388,127757.967,63312.166,113528.802,15553.819,-204909.93,33035.923
2.888,09-21-2026 21:18:32:229,-180639.154,171464.076,127304.763,67179.911,112852.348,27246.24,-204501.966,38109.68
2.892,09-21-2026 21:18:32:233,-169298.773,173206.574,126435.101,71176.582,111980.765,42247.837,-200422.326,41338.434
2.896,09-21-2026 21:18:32:237,-167678.719,173476.538,126288.116,70596.42,112188.904,42468.449,-197022.625,39295.753
2.9,09-21-2026 21:18:32:241,-179667.122,171635.872,127157.778,65439.426,113177.566,24598.899,-203414.062,33958.424
2.904,09-21-2026 21:18:32:245,-187204.532,170502.415,127725.691,63580.61,113556.92,16337.471,-204909.349,33301.551
2.908,09-21-2026 21:18:32:249,-180437.676,171516.29,127239.272,67362.525,112838.446,28283.406,-204234.237,38261.85
2.912,09-21-2026 21:18:32:253,-168884.506,173265.224,126391.158,71333.536,111940.353,43159.475,-199733.49,41455.468
2.916,09-21-2026 21:18:32:257,-167399.099,173518.693,126216.546,70640.185,112171.291,42934.08,-196582.967,39416.988
2.92,09-21-2026 21:18:32:261,-179282.359,171719.065,127089.605,65597.631,113133.533,25353.271,-203184.063,34048.993
2.924,09-21-2026 21:18:32:265,-187204.532,170502.415,127675.802,63517.578,113544.09,16562.866,-204909.349,33301.551
2.928,09-21-2026 21:18:32:269,-180437.676,171516.29,127214.328,67362.525,112825.616,28283.406,-204234.237,38261.85
2.932,09-21-2026 21:18:32:273,-169049.551,173265.224,126341.269,71333.536,111940.353,43159.475,-199583.465,41455.468
2.936,09-21-2026 21:18:32:277,-167234.053,173569.387,126191.601,70829.281,112145.631,43384.87,-196057.879,39484.938
2.94,09-21-2026 21:18:32:281,-179117.314,171744.412,127052.188,65597.631,113120.703,25578.666,-203034.038,34048.993
2.944,09-21-2026 21:18:32:285,-187039.487,170553.109,127650.857,63580.61,113531.26,16788.261,-204909.349,33301.551
2.948,09-21-2026 21:18:32:289,-180767.766,171490.943,127239.272,67236.461,112851.276,27832.616,-204159.225,38058.002
2.952,09-21-2026 21:18:32:293,-169049.551,173265.224,126391.158,71333.536,111940.353,43159.475,-199508.452,41455.468
2.956,09-21-2026 21:18:32:297,-166573.872,173670.775,126179.129,71018.376,112107.141,44286.45,-195607.805,39688.786
2.96,09-21-2026 21:18:32:301,-177631.906,171997.881,126977.355,66164.919,113018.064,27381.826,-202658.975,34456.689
2.964,09-21-2026 21:18:32:305,-187039.487,170553.109,127688.274,63391.514,113531.26,16337.471,-204834.337,32961.805
2.968,09-21-2026 21:18:32:309,-181097.857,171414.902,127289.161,66984.334,112902.595,26931.036,-204309.249,37854.154
2.972,09-21-2026 21:18:32:313,-169379.642,173214.531,126403.63,71207.472,111966.012,42483.29,-199958.527,41319.569
2.976,09-21-2026 21:18:32:317,-166243.782,173721.468,126166.657,71207.472,112107.141,44511.845,-195382.767,39892.634
2.98,09-21-2026 21:18:32:321,-176971.725,172099.268,126964.882,66354.014,113005.234,28283.406,-202433.938,34592.588
2.984,09-21-2026 21:18:32:325,-187204.532,170527.762,127750.635,63328.482,113569.75,15886.681,-204909.349,32825.906
2.988,09-21-2026 21:18:32:329,-181758.038,171313.515,127376.467,66732.206,112966.745,25804.061,-204459.274,37514.408
2.992,09-21-2026 21:18:32:333,-169709.732,173163.837,126465.991,71144.44,112004.502,42032.5,-200483.614,41251.62
2.996,09-21-2026 21:18:32:337,-167234.053,173569.387,126253.963,70829.281,112171.291,43159.475,-196732.992,39484.938
3,09-21-2026 21:18:32:341,-178952.268,171795.106,127102.077,65723.695,113133.533,25578.666,-203109.05,33981.044
3.004,09-21-2026 21:18:32:345,-187680.312,170480.734,127743.751,63395.135,113642.84,16006.844,-204933.802,32952.64
3.008,09-21-2026 21:18:32:349,-181543.953,171386.65,127324.611,66999.578,112945.466,26837.829,-204481.581,37792.911
3.012,09-21-2026 21:18:32:353,-169441.69,173224.365,126407.743,71324.908,111979.87,42738.636,-200260.857,41337.897
3.016,09-21-2026 21:18:32:357,-166543.966,173664.382,126185.075,71128.302,112113.981,44121.315,-196040.132,39633.577
3.02,09-21-2026 21:18:32:361,-178646.228,171852.55,127036.453,65819.942,113079.576,26146.49,-202898.81,34043.406
3.024,09-21-2026 21:18:32:365,-187339.403,170506.617,127717.555,63460.671,113602.607,16237.291,-204933.802,32952.64
3.028,09-21-2026 21:18:32:369,-181714.407,171334.883,127324.611,66868.507,112945.466,26607.382,-204481.581,37588.392
3.032,09-21-2026 21:18:32:373,-169441.69,173224.365,126420.841,71324.908,111979.87,42738.636,-200260.857,41337.897
3.036,09-21-2026 21:18:32:377,-166543.966,173690.265,126171.976,71128.302,112100.57,44121.315,-195964.762,39701.75
3.04,09-21-2026 21:18:32:381,-178475.774,171878.433,127036.453,65885.477,113106.398,26376.936,-202823.44,34111.578
3.044,09-21-2026 21:18:32:385,-187509.857,170506.617,127730.653,63395.135,113642.84,16237.291,-204933.802,32884.468
3.048,09-21-2026 21:18:32:389,-182055.316,171309,127350.807,66737.436,112985.699,26376.936,-204481.581,37520.219
3.052,09-21-2026 21:18:32:393,-169441.69,173224.365,126420.841,71324.908,111979.87,42738.636,-200260.857,41337.897
3.056,09-21-2026 21:18:32:397,-166373.511,173716.149,126158.878,71193.838,112087.159,44582.208,-195889.392,39838.095
3.06,09-21-2026 21:18:32:401,-177453.047,172033.733,126984.06,66213.154,113039.343,27759.615,-202672.699,34452.442
3.064,09-21-2026 21:18:32:405,-187509.857,170506.617,127730.653,63264.065,113656.251,16237.291,-204933.802,32816.295
3.068,09-21-2026 21:18:32:409,-182566.679,171231.35,127377.004,66540.83,113039.343,25455.15,-204632.322,37383.874
3.072,09-21-2026 21:18:32:413,-170123.508,173120.832,126407.743,71128.302,112020.104,42047.297,-200637.707,41269.725
3.076,09-21-2026 21:18:32:417,-166032.602,173767.915,126093.388,71455.979,112073.748,45043.101,-195361.801,40110.787
3.08,09-21-2026 21:18:32:421,-176771.23,172137.266,126892.373,66475.295,113012.521,28911.847,-202145.109,34725.134
3.084,09-21-2026 21:18:32:425,-187680.312,170480.734,127743.751,63132.994,113683.073,15776.398,-204933.802,32679.949
3.088,09-21-2026 21:18:32:429,-183418.951,171101.933,127429.396,66213.154,113119.809,24302.918,-204632.322,37111.182
3.092,09-21-2026 21:18:32:433,-170293.962,173094.949,126420.841,71128.302,112060.337,41586.404,-200788.447,41269.725
3.096,09-21-2026 21:18:32:437,-166032.602,173767.915,126080.29,71455.979,112087.159,45043.101,-195512.542,40247.132
3.1,09-21-2026 21:18:32:441,-176430.321,172189.033,126866.177,66606.366,112985.699,29372.74,-201994.369,34861.479
3.104,09-21-2026 21:18:32:445,-188178.532,170395.037,127760.604,62942.557,113736.494,15329.184,-204876.134,32537.345
3.108,09-21-2026 21:18:32:449,-183969.162,171004.793,127480.761,66034.608,113190.799,23771.885,-204630.444,37004.028
3.112,09-21-2026 21:18:32:453,-170792.004,173000.356,126459.33,71024.054,112099.408,41139.727,-201026.985,41258.012
3.116,09-21-2026 21:18:32:457,-166765.65,173665.544,126123.518,71305.149,112113.4,44275.587,-195949.384,39981.817
3.12,09-21-2026 21:18:32:461,-178478.679,171863.994,126977.042,65964.334,113120.838,26666.525,-202583.024,34238.939
3.124,09-21-2026 21:18:32:465,-188544.564,170339.605,127732.62,63012.831,113764.478,15329.184,-204876.134,32679.144
3.128,09-21-2026 21:18:32:469,-183969.162,171004.793,127396.807,66175.156,113134.83,24495.545,-204548.547,37145.828
3.132,09-21-2026 21:18:32:473,-170242.956,173083.505,126389.37,71305.149,112029.447,42345.827,-200289.914,41470.711
3.136,09-21-2026 21:18:32:477,-166033.586,173748.693,126025.573,71515.971,112015.454,45240.467,-195212.313,40265.416
3.14,09-21-2026 21:18:32:481,-177746.615,171974.858,126893.088,66104.882,113022.892,27631.405,-202255.437,34451.638
3.144,09-21-2026 21:18:32:485,-188544.564,170339.605,127718.628,62942.557,113750.486,15570.404,-204876.134,32608.245
3.148,09-21-2026 21:18:32:489,-183969.162,171004.793,127410.8,66175.156,113134.83,24495.545,-204548.547,37145.828
3.152,09-21-2026 21:18:32:493,-170242.956,173055.789,126375.377,71234.875,112001.462,42104.607,-200208.017,41470.711
3.156,09-21-2026 21:18:32:497,-165667.554,173804.125,126025.573,71656.519,111987.47,45481.687,-194720.932,40336.316
3.16,09-21-2026 21:18:32:501,-177563.599,172002.574,126893.088,66175.156,113022.892,27631.405,-202009.747,34451.638
3.164,09-21-2026 21:18:32:505,-188361.548,170339.605,127732.62,62942.557,113764.478,15570.404,-204876.134,32679.144
3.168,09-21-2026 21:18:32:509,-184152.178,170949.36,127424.792,66034.608,113162.814,24013.105,-204548.547,37074.928
3.172,09-21-2026 21:18:32:513,-170242.956,173083.505,126375.377,71305.149,112015.454,42104.607,-200126.12,41541.611
3.176,09-21-2026 21:18:32:517,-165484.538,173831.841,125983.596,71726.793,111987.47,45722.907,-194475.242,40549.015
3.18,09-21-2026 21:18:32:521,-176282.486,172196.588,126795.143,66596.799,112952.931,29319.945,-201682.16,34947.936
3.184,09-21-2026 21:18:32:525,-187812.5,170422.753,127690.643,63012.831,113722.502,15811.624,-204876.134,32608.245
3.188,09-21-2026 21:18:32:529,-184701.226,170893.928,127466.768,65753.512,113218.783,23048.225,-204630.444,36791.329
3.192,09-21-2026 21:18:32:533,-170608.988,173028.072,126417.354,71164.602,112071.423,41380.947,-200535.604,41399.812
3.196,09-21-2026 21:18:32:537,-165301.521,173859.557,125983.596,71867.34,111987.47,45964.127,-194475.242,40619.915
3.2,09-21-2026 21:18:32:541,-175367.406,172335.168,126753.167,67018.442,112896.963,30526.046,-201272.676,35231.535
3.204,09-21-2026 21:18:32:545,-188153.319,170408.314,127706.826,62901.564,113740.115,15373.217,-204841.355,32440.651
3.208,09-21-2026 21:18:32:549,-184920.184,170845.335,127504.99,65675.371,113250.388,22369.894,-204678.277,36602.636
3.212,09-21-2026 21:18:32:553,-171089.55,172948.5,126441.986,70938.491,112117.021,40706.014,-200927.475,41258.415
3.216,09-21-2026 21:18:32:557,-165341.755,173849.857,125997.946,71934.217,112005.083,46013.838,-194485.881,40694.078
3.22,09-21-2026 21:18:32:561,-175220.779,172347.596,126724.556,67026.713,112886.591,30814.16,-201172.093,35262.336
3.224,09-21-2026 21:18:32:565,-187973.701,170435.628,127706.826,62901.564,113726.123,15373.217,-204841.355,32440.651
3.228,09-21-2026 21:18:32:569,-185279.421,170790.708,127545.357,65533.124,113292.365,21887.365,-204678.277,36461.551
3.232,09-21-2026 21:18:32:573,-171269.169,172921.186,126482.353,70938.491,112158.997,40464.749,-201090.554,41258.415
3.236,09-21-2026 21:18:32:577,-166239.848,173713.288,126065.225,71578.601,112075.044,44807.514,-195545.89,40341.367
3.24,09-21-2026 21:18:32:581,-177196.583,172047.144,126872.57,66457.727,113026.513,28160.248,-201987.484,34697.999
3.244,09-21-2026 21:18:32:585,-188153.319,170381,127693.37,63043.81,113782.092,15373.217,-204841.355,32581.736
3.248,09-21-2026 21:18:32:589,-184740.565,170872.649,127464.623,65888.741,113236.396,22852.424,-204678.277,36743.72
3.252,09-21-2026 21:18:32:593,-171089.55,172948.5,126415.074,71080.738,112131.013,41188.543,-200845.936,41399.499
3.256,09-21-2026 21:18:32:597,-165880.61,173767.915,126011.402,71720.847,112033.068,45531.308,-195056.655,40552.993
3.26,09-21-2026 21:18:32:601,-176837.346,172101.771,126818.747,66528.85,112998.529,28642.777,-201824.406,34768.541
3.264,09-21-2026 21:18:32:605,-187794.082,170435.628,127666.459,63186.057,113740.115,15855.746,-204841.355,32793.362
3.268,09-21-2026 21:18:32:609,-184560.947,170872.649,127451.167,65817.617,113250.388,22852.424,-204596.738,36814.262
3.272,09-21-2026 21:18:32:613,-171089.55,172948.5,126415.074,71009.615,112145.005,41188.543,-200927.475,41399.499
3.276,09-21-2026 21:18:32:617,-165880.61,173740.601,125997.946,71720.847,112061.052,45531.308,-195219.734,40623.536
3.28,09-21-2026 21:18:32:621,-176298.49,172183.713,126778.379,66813.343,112984.537,29366.571,-201579.789,35121.251
3.284,09-21-2026 21:18:32:625,-187255.226,170490.255,127626.092,63328.303,113726.123,16579.541,-204759.816,32934.446
3.288,09-21-2026 21:18:32:629,-184740.565,170845.335,127478.078,65675.371,113250.388,22611.159,-204678.277,36673.178
3.292,09-21-2026 21:18:32:633,-174143.067,172484.165,126630.366,69800.519,112340.896,38293.366,-203862.885,40623.536
3.296,09-21-2026 21:18:32:637,-171089.55,172975.814,126347.795,70156.136,112424.849,40947.278,-201172.093,39635.946
3.3,09-21-2026 21:18:32:641,-176298.49,172156.399,126711.101,67382.329,112984.537,30572.895,-203129.033,35756.13
3.304,09-21-2026 21:18:32:645,-181367.911,171395.546,127145.082,65831.744,113210.557,22570.255,-204569.29,34614.493
3.308,09-21-2026 21:18:32:649,-180326.677,171558.848,127132.833,66992.693,112822.174,26468.846,-204233.388,37357.678
3.312,09-21-2026 21:18:32:653,-173385.119,172626.59,126630.634,69679.462,112296.237,38309.012,-203354.875,40290.048
3.316,09-21-2026 21:18:32:657,-171476.191,172940.632,126440.779,69812.142,112530.886,40330.504,-201365.301,39486.011
3.32,09-21-2026 21:18:32:661,-175988.203,172262.302,126740.873,67490.243,113000.183,31089.399,-202915.618,35891.492
3.324,09-21-2026 21:18:32:665,-181801.758,171370.422,127181.828,65599.554,113259.105,21992.686,-204595.128,34425.307
3.328,09-21-2026 21:18:32:669,-180760.524,171533.724,127169.58,66860.013,112870.722,25746.885,-204440.097,37215.789
3.332,09-21-2026 21:18:32:673,-173992.506,172576.344,126673.505,69480.442,112344.785,37587.051,-203768.293,40242.751
3.336,09-21-2026 21:18:32:677,-172257.116,172865.262,126502.022,69613.122,112579.434,39464.151,-202037.105,39296.825
3.34,09-21-2026 21:18:32:681,-178157.44,171960.821,126900.107,66826.843,113162.009,28345.946,-203639.099,35371.233
3.344,09-21-2026 21:18:32:685,-182235.605,171345.299,127218.575,65765.404,113323.836,21992.686,-204646.805,34661.789
3.348,09-21-2026 21:18:32:689,-180673.755,171583.971,127126.709,67059.033,112846.448,26757.631,-204336.742,37499.566
3.352,09-21-2026 21:18:32:693,-173992.506,172614.029,126649.007,69613.122,112320.511,38309.012,-203535.745,40384.64
3.356,09-21-2026 21:18:32:697,-172343.886,172890.386,126489.774,69646.292,112555.16,39752.935,-201856.235,39391.418
3.36,09-21-2026 21:18:32:701,-178244.21,171998.506,126881.734,66860.013,113137.736,28779.123,-203535.745,35418.53
3.364,09-21-2026 21:18:32:705,-182235.605,171370.422,127218.575,65798.574,113315.745,22281.471,-204620.967,34709.085
3.368,09-21-2026 21:18:32:709,-180847.294,171596.533,127151.206,67059.033,112846.448,26757.631,-204207.549,37452.27
3.372,09-21-2026 21:18:32:713,-173992.506,172651.714,126661.256,69679.462,112320.511,38453.405,-203225.682,40431.936
3.376,09-21-2026 21:18:32:717,-172690.963,172877.824,126508.147,69613.122,112571.342,39752.935,-201933.751,39438.714
3.38,09-21-2026 21:18:32:721,-178244.21,172036.191,126875.609,66959.523,113121.553,28923.515,-203484.068,35513.122
3.384,09-21-2026 21:18:32:725,-182495.914,171370.422,127212.45,65765.404,113323.836,22281.471,-204620.967,34709.085
3.388,09-21-2026 21:18:32:729,-180934.063,171634.218,127145.082,67125.373,112846.448,26757.631,-204285.065,37499.566
3.392,09-21-2026 21:18:32:733,-174426.353,172626.59,126661.256,69579.952,112320.511,38164.62,-203380.713,40431.936
3.396,09-21-2026 21:18:32:737,-172690.963,172915.509,126502.022,69712.632,112563.251,39897.327,-201701.203,39580.603
3.4,09-21-2026 21:18:32:741,-177550.054,172174.37,126832.739,67291.223,113113.462,30223.045,-203251.52,35938.789
3.404,09-21-2026 21:18:32:745,-182007.707,171492.955,127196.312,65953.784,113303.228,22811.028,-204600.493,34859.155
3.408,09-21-2026 21:18:32:749,-181431.926,171578.07,127202.213,66875.123,112900.896,25868.657,-204303.527,37332.688
3.412,09-21-2026 21:18:32:753,-174604.809,172635.933,126712.442,69547.006,112361.772,37821.208,-203366.945,40412.937
3.416,09-21-2026 21:18:32:757,-172877.466,172927.758,126541.317,69700.562,112595.125,39905.955,-201745.057,39619.54
3.42,09-21-2026 21:18:32:761,-176825.679,172331.95,126806.855,67642.905,113061.829,31427.983,-202932.918,36259.268
3.424,09-21-2026 21:18:32:765,-182254.47,171492.955,127225.817,65830.939,113303.228,22533.062,-204577.649,34672.473
3.428,09-21-2026 21:18:32:769,-181925.453,171541.592,127261.222,66721.567,112933.083,25034.758,-204463.432,37099.336
3.432,09-21-2026 21:18:32:773,-175345.099,172562.977,126753.748,69362.738,112402.005,37126.292,-203778.127,40272.926
3.436,09-21-2026 21:18:32:777,-173206.484,172915.599,126564.92,69700.562,112603.171,39766.972,-201950.649,39666.21
3.44,09-21-2026 21:18:32:781,-177072.442,172319.79,126789.153,67642.905,113061.829,31566.966,-202978.605,36305.939
3.444,09-21-2026 21:18:32:785,-182583.488,171480.795,127243.519,65800.228,113303.228,22394.079,-204600.493,34672.473
3.448,09-21-2026 21:18:32:789,-182583.488,171480.795,127290.726,66568.01,112949.176,24617.809,-204463.432,37005.995
3.452,09-21-2026 21:18:32:793,-175674.117,172550.818,126795.054,69362.738,112402.005,36987.309,-203732.44,40319.597
3.456,09-21-2026 21:18:32:797,-174029.028,172806.164,126623.929,69454.872,112619.264,38933.073,-202476.049,39526.199
3.46,09-21-2026 21:18:32:801,-179046.548,172052.285,126948.476,67028.679,113142.295,29065.27,-203641.066,35745.893
3.464,09-21-2026 21:18:32:805,-183323.778,171383.521,127261.222,65800.228,113367.601,22255.096,-204646.18,34765.814
3.468,09-21-2026 21:18:32:809,-182089.961,171578.07,127214.015,66967.257,112884.803,26007.64,-204394.901,37379.359
3.472,09-21-2026 21:18:32:813,-175509.608,172599.455,126724.243,69516.295,112345.679,37821.208,-203549.692,40459.608
3.476,09-21-2026 21:18:32:817,-173782.265,172866.961,126576.722,69608.428,112562.938,39627.989,-202110.553,39666.21
3.48,09-21-2026 21:18:32:821,-178964.293,172076.603,126913.071,67090.102,113142.295,29621.202,-203412.632,35885.905
3.484,09-21-2026 21:18:32:825,-183159.269,171432.158,127243.519,65923.073,113359.554,22533.062,-204623.336,34905.825
3.488,09-21-2026 21:18:32:829,-182254.47,171578.07,127225.817,66936.546,112925.036,26007.64,-204280.684,37379.359
3.492,09-21-2026 21:18:32:833,-175427.353,172635.933,126736.045,69639.14,112377.866,38099.174,-203207.04,40599.619
3.496,09-21-2026 21:18:32:837,-173864.519,172891.28,126559.019,69639.14,112570.985,39766.972,-201996.336,39759.551
3.5,09-21-2026 21:18:32:841,-178799.785,172137.4,126883.567,67212.947,113126.202,29899.169,-203275.571,35979.245
3.504,09-21-2026 21:18:32:845,-183440.141,171434.259,127228.812,65870.144,113378.777,22579.017,-204610.104,34901.4
3.508,09-21-2026 21:18:32:849,-182418.487,171576.953,127216.652,66918.888,112923.919,25998.834,-204270.804,37361.254
3.512,09-21-2026 21:18:32:853,-175581.268,172647.154,126712.039,69633.284,112369.819,38036.589,-203117.186,40595.507
3.516,09-21-2026 21:18:32:857,-173930.904,172908.759,126553.968,69694.974,112560.032,39951.687,-201827.848,39866.661
3.52,09-21-2026 21:18:32:861,-178174.696,172266.638,126821.473,67566.641,113064.511,31060.163,-203026.706,36313.538
3.524,09-21-2026 21:18:32:865,-182890.02,171541.279,127192.334,66024.371,113312.616,23262.98,-204564.864,34992.505
3.528,09-21-2026 21:18:32:869,-182732.842,171576.953,127234.891,66795.506,112923.919,25314.871,-204383.904,37179.042
3.532,09-21-2026 21:18:32:873,-176052.8,172599.59,126742.438,69509.902,112402.9,37352.626,-203433.866,40504.401
3.536,09-21-2026 21:18:32:877,-173930.904,172944.432,126553.968,69787.511,112568.302,39951.687,-201782.608,39957.767
3.54,09-21-2026 21:18:32:881,-177545.986,172397.44,126791.075,67813.405,113072.781,32154.504,-202823.127,36586.855
3.544,09-21-2026 21:18:32:885,-182732.842,171600.735,127210.573,66055.216,113337.426,23262.98,-204587.484,34946.952
3.548,09-21-2026 21:18:32:889,-183361.552,171505.606,127295.688,66517.897,112998.35,24357.322,-204474.384,36905.725
3.552,09-21-2026 21:18:32:893,-176367.155,172563.916,126803.234,69386.52,112435.98,36805.455,-203614.825,40413.295
3.556,09-21-2026 21:18:32:897,-174323.848,172908.759,126590.446,69664.129,112584.843,39678.102,-202031.428,39912.214
3.56,09-21-2026 21:18:32:901,-177231.631,172468.787,126772.836,67967.632,113031.431,32701.675,-202619.547,36723.514
3.564,09-21-2026 21:18:32:905,-183125.786,171565.061,127222.732,65900.989,113337.426,22852.602,-204564.864,34810.294
3.568,09-21-2026 21:18:32:909,-183754.496,171469.932,127326.086,66425.361,113006.62,23810.151,-204587.484,36814.62
3.572,09-21-2026 21:18:32:913,-176917.276,172516.352,126821.473,69293.984,112469.061,36395.077,-203931.505,40367.742
3.576,09-21-2026 21:18:32:917,-174873.969,172849.303,126620.844,69571.593,112601.383,39130.931,-202529.067,39775.555
3.58,09-21-2026 21:18:32:921,-179432.115,172147.727,126906.589,67258.187,113147.213,30102.614,-203479.106,36085.774
3.584,09-21-2026 21:18:32:925,-183911.673,171458.041,127259.21,65900.989,113420.127,22579.017,-204655.344,34855.847
3.588,09-21-2026 21:18:32:929,-183518.73,171517.497,127247.051,66672.124,112981.81,25041.285,-204429.144,37087.937
3.592,09-21-2026 21:18:32:933,-176524.332,172599.59,126766.756,69540.747,112411.17,37352.626,-203388.626,40549.954
3.596,09-21-2026 21:18:32:937,-174716.791,172884.977,126608.685,69664.129,112584.843,39678.102,-202189.768,39912.214
3.6,09-21-2026 21:18:32:941,-179039.172,172230.965,126882.27,67412.414,113130.672,30786.578,-203185.046,36267.985
3.604,09-21-2026 21:18:32:945,-183967.329,171470.514,127240.166,65873.184,113416.909,22778.171,-204627.136,34881.283
3.608,09-21-2026 21:18:32:949,-183548.457,171532.875,127240.166,66671.677,112979.262,24938.244,-204476.932,37027.05
3.612,09-21-2026 21:18:32:953,-176678.962,172593.018,126751.378,69466.405,112414.299,37358.661,-203489.879,40558.626
3.616,09-21-2026 21:18:32:957,-174668.378,172917.297,126560.942,69712.096,112541.614,39923.747,-202073.673,39977.481
3.62,09-21-2026 21:18:32:961,-179192.192,172231.322,126840.249,67408.749,113106.577,30878.443,-203146.556,36311.795
3.624,09-21-2026 21:18:32:965,-183967.329,171495.458,127208.427,65903.895,113393.037,22778.171,-204627.136,34925.987
3.628,09-21-2026 21:18:32:969,-183799.78,171520.403,127227.471,66640.966,112987.219,24938.244,-204391.102,37027.05
3.632,09-21-2026 21:18:32:973,-176762.736,172593.018,126732.335,69527.828,112406.342,37358.661,-203232.387,40558.626
3.636,09-21-2026 21:18:32:977,-174752.152,172917.297,126554.594,69742.807,112533.657,39923.747,-201902.011,40022.184
3.64,09-21-2026 21:18:32:981,-178186.9,172393.462,126789.466,67807.995,113050.877,32228.489,-202653.03,36669.423
3.644,09-21-2026 21:18:32:985,-183464.683,171582.764,127189.383,66026.74,113353.251,23453.194,-204541.305,34970.69
3.648,09-21-2026 21:18:32:989,-184218.652,171470.514,127297.297,66425.987,112995.176,23993.212,-204519.848,36803.533
3.652,09-21-2026 21:18:32:993,-177349.156,172530.657,126802.162,69343.56,112438.171,36548.634,-203597.168,40469.219
3.656,09-21-2026 21:18:32:997,-174919.701,172917.297,126586.333,69773.518,112533.657,39923.747,-202009.3,40111.591
3.66,09-21-2026 21:18:33:001,-177768.028,172493.24,126745.03,68053.686,113003.133,33308.525,-202524.284,36937.644
3.664,09-21-2026 21:18:33:005,-183464.683,171620.181,127189.383,66026.74,113321.422,23453.194,-204519.848,34925.987
3.668,09-21-2026 21:18:33:009,-184888.847,171383.208,127348.081,66180.297,113058.834,23048.18,-204519.848,36535.312
3.672,09-21-2026 21:18:33:013,-177851.802,172455.823,126840.249,69190.004,112485.914,35873.611,-203704.456,40335.109
3.676,09-21-2026 21:18:33:017,-175673.67,172805.047,126624.42,69558.539,112597.315,39113.72,-202416.995,40022.184
3.68,09-21-2026 21:18:33:021,-178019.351,172455.823,126764.074,68084.397,113034.962,33038.516,-202674.488,37071.754
3.684,09-21-2026 21:18:33:025,-183799.78,171570.292,127208.427,65996.029,113361.208,23048.18,-204519.848,34881.283
3.688,09-21-2026 21:18:33:029,-185307.719,171333.319,127360.776,66088.163,113082.706,22913.176,-204541.305,36401.202
3.692,09-21-2026 21:18:33:033,-178103.125,172418.406,126846.597,69159.292,112501.828,36143.62,-203768.829,40200.998
3.696,09-21-2026 21:18:33:037,-175924.993,172767.63,126637.116,69497.117,112613.229,39383.729,-202588.657,39798.667
3.7,09-21-2026 21:18:33:041,-179611.064,172218.85,126852.945,67531.594,113122.492,31283.457,-203146.556,36311.795
3.704,09-21-2026 21:18:33:045,-184848.48,171397.334,127220.497,65797.098,113456.516,22585.946,-204567.859,34621.6
3.708,09-21-2026 21:18:33:049,-184766.091,171397.334,127257.243,66439.219,113052.039,24255.89,-204492.936,36527.757
3.712,09-21-2026 21:18:33:053,-177763.066,172460.383,126761.168,69344.052,112491.994,36780.466,-203575.129,40149.455
3.716,09-21-2026 21:18:33:057,-175538.576,172823.375,126589.686,69680.401,112585.334,39563.705,-202376.36,39720.57
3.72,09-21-2026 21:18:33:061,-179410.837,172227.031,126822.412,67570.575,113114.266,31492.312,-203088.129,36146.526
3.724,09-21-2026 21:18:33:065,-184436.537,171449.19,127220.497,65888.83,113433.181,22864.27,-204586.59,34383.331
3.728,09-21-2026 21:18:33:069,-184930.868,171371.406,127287.865,66347.488,113059.817,23838.404,-204492.936,36146.526
3.732,09-21-2026 21:18:33:073,-177763.066,172460.383,126779.542,69313.475,112468.658,36502.142,-203575.129,39863.532
3.736,09-21-2026 21:18:33:077,-175620.964,172810.411,126595.81,69619.247,112561.999,39424.543,-202619.86,39434.646
3.74,09-21-2026 21:18:33:081,-179081.283,172278.887,126810.163,67692.884,113083.153,31909.797,-203106.86,36051.218
3.744,09-21-2026 21:18:33:085,-184189.371,171475.118,127189.875,65919.407,113425.402,23142.594,-204605.321,34240.369
3.748,09-21-2026 21:18:33:089,-184766.091,171371.406,127281.741,66316.911,113059.817,23699.242,-204605.321,35908.256
3.752,09-21-2026 21:18:33:093,-178092.62,172395.563,126797.915,69160.589,112491.994,35945.494,-203949.744,39529.954
3.756,09-21-2026 21:18:33:097,-175620.964,172784.483,126601.935,69619.247,112554.221,39424.543,-202807.168,39291.685
3.76,09-21-2026 21:18:33:101,-178257.397,172382.599,126767.293,67998.656,113052.039,33301.417,-203031.937,36194.18
3.764,09-21-2026 21:18:33:105,-183777.429,171539.938,127202.124,66041.716,113394.289,23838.404,-204549.128,34097.407
3.768,09-21-2026 21:18:33:109,-185507.588,171254.73,127367.482,66011.139,113106.488,22725.108,-204642.782,35431.717
3.772,09-21-2026 21:18:33:113,-178504.563,172317.779,126859.158,69038.28,112499.772,35388.846,-204080.859,39291.685
3.776,09-21-2026 21:18:33:117,-175950.518,172719.663,126620.308,69496.938,112530.886,39146.219,-202975.744,39101.069
3.78,09-21-2026 21:18:33:121,-177680.677,172460.383,126718.298,68243.273,112966.476,33997.227,-202788.437,36384.795
3.784,09-21-2026 21:18:33:125,-183942.206,171501.046,127165.377,65919.407,113316.505,23560.08,-204549.128,34097.407
3.788,09-21-2026 21:18:33:129,-186001.919,171176.946,127355.233,65797.098,113059.817,21890.136,-204755.167,35431.717
3.792,09-21-2026 21:18:33:133,-179328.448,172175.175,126871.407,68763.085,112484.215,34414.713,-204361.821,39339.338
3.796,09-21-2026 21:18:33:137,-176856.792,172577.059,126650.93,69282.898,112507.55,38172.086,-203687.513,39196.377
3.8,09-21-2026 21:18:33:141,-180234.722,172045.534,126834.661,67356.535,113036.482,31213.988,-203931.013,35908.256
3.804,09-21-2026 21:18:33:145,-185665.123,171189.776,127257.377,65484.979,113397.239,22098.276,-204703.624,34124.989
3.808,09-21-2026 21:18:33:149,-186518.87,171031.972,127342.448,65786.459,113081.811,22634.896,-204703.624,35930.653
3.812,09-21-2026 21:18:33:153,-179688.892,172041.914,126847.491,68725.892,112490.384,35513.793,-204236.383,39807.518
3.816,09-21-2026 21:18:33:157,-177696.815,172341.74,126646.415,68989.687,112529.813,39135.982,-203589.434,39595.087
3.82,09-21-2026 21:18:33:161,-181111.804,171820.989,126839.757,67143.12,113062.097,32964.844,-203697.259,36408.622
3.824,09-21-2026 21:18:33:165,-187277.757,170842.608,127272.845,65032.758,113456.382,24110.603,-204344.208,34549.851
3.828,09-21-2026 21:18:33:169,-188226.365,170637.464,127388.85,65334.238,113101.526,24244.758,-204308.266,36302.407
3.832,09-21-2026 21:18:33:173,-181586.108,171615.845,126917.094,68273.672,112470.67,35513.793,-203769.142,40285.488
3.836,09-21-2026 21:18:33:177,-179499.171,171931.451,126700.551,68612.837,112450.956,38599.362,-202942.485,40179.272
3.84,09-21-2026 21:18:33:181,-183009.02,171379.14,126878.426,66728.585,112943.812,32428.224,-202978.427,37152.131
3.844,09-21-2026 21:18:33:185,-188700.669,170479.661,127296.046,64844.333,113239.525,23842.293,-203697.259,35399.575
3.848,09-21-2026 21:18:33:189,-189269.833,170337.638,127365.649,65221.183,112766.384,24110.603,-203553.492,37099.023
3.852,09-21-2026 21:18:33:193,-182439.856,171347.579,126862.958,68235.987,111997.528,35245.482,-202762.777,40869.673
3.856,09-21-2026 21:18:33:197,-179499.171,171820.989,126615.48,68914.317,111839.814,38867.672,-201325.113,40816.565
3.86,09-21-2026 21:18:33:201,-181680.969,171489.602,126716.018,67519.971,112214.385,33635.62,-201181.346,37842.532
3.864,09-21-2026 21:18:33:205,-186803.453,170684.805,127094.969,65635.719,112470.67,24781.379,-203194.076,35718.222
3.868,09-21-2026 21:18:33:209,-188416.086,170416.539,127265.111,65598.034,112115.814,23305.672,-203230.018,36833.484
3.872,09-21-2026 21:18:33:213,-181301.526,171489.602,126754.686,68725.892,111406.101,34440.551,-201864.237,40657.242
3.876,09-21-2026 21:18:33:217,-178360.841,171947.232,126491.741,69328.853,111307.53,38062.741,-200570.339,40551.027
3.88,09-21-2026 21:18:33:221,-179499.171,171789.428,126538.143,68311.357,111662.386,34172.241,-200139.04,37842.532
3.884,09-21-2026 21:18:33:225,-185475.401,170874.169,126986.698,65974.884,111997.528,24244.758,-203194.076,35346.468
3.888,09-21-2026 21:18:33:229,-187467.478,170527.002,127187.774,65786.459,111701.815,22098.276,-203481.609,36302.407
3.892,09-21-2026 21:18:33:233,-180542.64,171568.504,126677.349,68838.947,111031.531,33233.155,-202547.127,40179.272
3.896,09-21-2026 21:18:33:237,-177222.511,172105.035,126406.67,69630.333,110952.674,37526.12,-201253.23,40232.38
3.9,09-21-2026 21:18:33:241,-178171.119,171963.012,126437.605,68612.837,111346.958,33903.931,-200678.164,37630.101
3.904,09-21-2026 21:18:33:245,-184140.019,171051.552,126923.442,66270.061,111725.239,23786.145,-203479.91,35038.058
3.908,09-21-2026 21:18:33:249,-186691.47,170653.513,127178.476,65924.056,111518.843,21209.436,-203815.857,35947.729
3.912,09-21-2026 21:18:33:253,-179649.464,171714.952,126682.982,69072.702,110845.341,32546.956,-203121.567,39889.638
3.916,09-21-2026 21:18:33:257,-176689.78,172179.332,126420.662,69660.91,110769.3,36540.855,-202315.295,39846.321
3.92,09-21-2026 21:18:33:261,-178935.057,171864.217,126537.249,68207.689,111236.407,31258.602,-202292.899,36857.401
3.924,09-21-2026 21:18:33:265,-184548.251,170968.627,126967.162,66131.659,111638.336,22111.284,-204017.425,34604.881
3.928,09-21-2026 21:18:33:269,-185262.657,170852.532,127061.889,66443.064,111258.133,21853.613,-204151.804,35991.047
3.932,09-21-2026 21:18:33:273,-178322.709,171913.972,126551.822,69384.106,110584.63,33062.298,-203547.1,39803.003
3.936,09-21-2026 21:18:33:277,-175158.909,172428.107,126296.789,70076.116,110519.452,36927.362,-202785.62,39803.003
3.94,09-21-2026 21:18:33:281,-177506.244,172063.237,126435.235,68484.493,111040.874,31516.273,-202875.206,36727.448
3.944,09-21-2026 21:18:33:285,-183221.496,171200.817,126887.009,66408.463,111464.529,22240.12,-204353.372,34518.246
3.948,09-21-2026 21:18:33:289,-184242.077,171034.967,126989.022,66581.466,111138.64,21724.778,-204487.75,35861.094
3.952,09-21-2026 21:18:33:293,-177302.128,172096.407,126508.102,69591.709,110454.274,32933.463,-203995.029,39673.05
3.956,09-21-2026 21:18:33:297,-174444.503,172560.787,126274.929,70145.317,110410.823,36669.691,-203390.325,39629.732
3.96,09-21-2026 21:18:33:301,-176485.664,172245.672,126406.089,68692.096,110943.107,31645.108,-203390.325,36727.448
3.964,09-21-2026 21:18:33:305,-182507.09,171333.497,126857.862,66512.265,111388.488,21982.449,-204666.922,34388.293
3.968,09-21-2026 21:18:33:309,-183527.67,171184.232,126981.735,66719.868,111062.6,21467.107,-204846.094,35687.823
3.972,09-21-2026 21:18:33:313,-176893.896,172212.502,126500.815,69626.31,110410.823,32546.956,-204487.75,39543.097
3.976,09-21-2026 21:18:33:317,-173730.096,172726.637,126253.069,70318.32,110345.645,36669.691,-203950.236,39543.097
3.98,09-21-2026 21:18:33:321,-175363.025,172494.447,126333.222,69038.101,110845.341,32289.285,-203927.839,36814.083
3.984,09-21-2026 21:18:33:325,-180976.219,171632.027,126792.282,66892.87,111279.859,22884.297,-204935.679,34431.611
3.988,09-21-2026 21:18:33:329,-183527.67,171250.572,127032.742,66546.865,111095.188,20565.259,-205137.247,35254.647
3.992,09-21-2026 21:18:33:333,-176791.838,172278.842,126573.682,69591.709,110465.137,31773.944,-204846.094,39283.191
3.996,09-21-2026 21:18:33:337,-173832.154,172759.807,126304.075,70249.119,110399.96,36025.514,-204510.147,39413.144
4,09-21-2026 21:18:33:341,-174444.503,172676.882,126333.222,69384.106,110823.615,32933.463,-204465.354,37030.671
4.004,09-21-2026 21:18:33:345,-180556.632,171752.414,126825.005,66947.811,111276.103,22762.346,-205187.271,34294.371
4.008,09-21-2026 21:18:33:349,-183599.509,171296.081,127101.809,66429.25,111114.724,19736.814,-205433.229,34956.877
4.012,09-21-2026 21:18:33:353,-176976.776,172318.896,126625.449,69508.203,110469.205,31082.559,-205140.421,39020.245
4.016,09-21-2026 21:18:33:357,-173665.41,172838.172,126316.458,70286.044,110358.788,35746.921,-204906.175,39241.08
4.02,09-21-2026 21:18:33:361,-174649.87,172712.287,126335.77,69248.923,110783.471,32217.134,-204906.175,36679.391
4.024,09-21-2026 21:18:33:365,-180914.617,171752.414,126837.88,66818.171,111276.103,22005.963,-205480.079,34029.369
4.028,09-21-2026 21:18:33:369,-183062.531,171421.966,127076.06,66623.711,111063.762,19862.878,-205690.9,34956.877
4.032,09-21-2026 21:18:33:373,-176708.287,172397.574,126612.574,69573.023,110443.724,30956.496,-205386.38,38931.911
4.036,09-21-2026 21:18:33:377,-173396.921,172948.321,126335.77,70383.274,110341.8,35620.858,-205234.12,39196.913
4.04,09-21-2026 21:18:33:381,-175276.345,172649.345,126419.455,68989.643,110859.914,30956.496,-205339.531,36326.055
4.044,09-21-2026 21:18:33:385,-181272.603,171736.678,126902.253,66785.761,111335.559,21123.516,-205772.886,33852.7
4.048,09-21-2026 21:18:33:389,-182883.538,171500.644,127043.873,66753.351,111055.268,20115.005,-205925.146,34956.877
4.052,09-21-2026 21:18:33:393,-176171.309,172539.195,126561.076,69735.073,110384.269,31334.687,-205620.626,38931.911
4.056,09-21-2026 21:18:33:397,-172859.943,173058.471,126284.272,70448.094,110273.851,35746.921,-205468.366,39108.579
4.06,09-21-2026 21:18:33:401,-174470.878,172822.436,126380.831,69151.693,110774.977,31334.687,-205585.489,36326.055
4.064,09-21-2026 21:18:33:405,-180825.121,171862.563,126882.941,66753.351,111284.597,20997.452,-206007.133,33676.032
4.068,09-21-2026 21:18:33:409,-182257.063,171658,127037.436,66882.991,111021.294,20115.005,-206159.393,34868.543
4.072,09-21-2026 21:18:33:413,-175902.82,172649.345,126567.513,69735.073,110375.775,30956.496,-205854.873,38711.076
4.076,09-21-2026 21:18:33:417,-172501.957,173184.356,126303.584,70545.324,110256.864,35620.858,-205714.325,38976.078
4.08,09-21-2026 21:18:33:421,-174112.892,172948.321,126400.143,69216.513,110783.471,31334.687,-205819.736,36237.721
4.084,09-21-2026 21:18:33:425,-180288.143,172019.919,126902.253,66915.401,111284.597,21123.516,-206241.379,33631.865
4.088,09-21-2026 21:18:33:429,-181988.574,171752.414,127069.623,66882.991,111055.268,19862.878,-206393.639,34647.707
4.092,09-21-2026 21:18:33:433,-175544.834,172759.494,126599.699,69799.893,110401.256,30830.432,-206100.831,38578.574
4.096,09-21-2026 21:18:33:437,-172233.468,173294.505,126316.458,70545.324,110299.332,35620.858,-205936.859,38887.744
4.1,09-21-2026 21:18:33:441,-173038.935,173184.356,126355.082,69573.023,110766.484,32217.134,-205995.42,36458.556
