PseudoTimeSec,PseudoTimestamp,UF-FP1,UF-FP2,UF-O1,UF-O2,UF-C3,UF-CZ,UF-FZ,UF-C4
0.004,09-22-2026 21:33:36:279,-158799.533,-130316.75,-88560.473,-90975.668,-87014.537,-95665.422,-88370.215,-110656.021
0.008,09-22-2026 21:33:36:283,-158924.971,-131140.456,-151301.238,-153503.153,-149548.906,-157531.206,-12808.22,35461.087
0.012,09-22-2026 21:33:36:287,-159014.959,-130361.275,-90109.627,-96249.07,-89330.624,-100946.647,-89465.316,-141650.56
0.016,09-22-2026 21:33:36:291,-158834.983,-129826.978,-52929.914,-57828.567,-51501.191,-62469.147,-52231.869,-115083.812
0.02,09-22-2026 21:33:36:295,-158761.356,-130261.094,-87785.895,-90975.668,-86242.507,-95665.422,-88370.215,-110656.021
0.024,09-22-2026 21:33:36:299,-158886.794,-131095.932,-150526.661,-152749.81,-148776.877,-157531.206,-151886.094,-134270.908
0.028,09-22-2026 21:33:36:303,-159020.413,-131051.407,-145879.197,-149736.437,-144144.701,-154513.363,-145315.486,-151982.072
0.032,09-22-2026 21:33:36:307,-158987.69,-130327.881,-90884.205,-96249.07,-89330.624,-100946.647,-90560.417,-141650.56
0.036,09-22-2026 21:33:36:311,-158813.168,-129804.716,-52929.914,-57828.567,-51501.191,-62469.147,-52231.869,-115083.812
0.04,09-22-2026 21:33:36:315,-158736.814,-130238.832,-88560.473,-90975.668,-87014.537,-95665.422,-88370.215,-110656.021
0.044,09-22-2026 21:33:36:319,-158864.979,-131062.538,-151301.238,-153503.153,-149548.906,-158285.666,-151886.094,-134270.908
0.048,09-22-2026 21:33:36:323,-159004.052,-131029.145,-145879.197,-150489.78,-144916.731,-155267.823,-146410.587,-151982.072
0.052,09-22-2026 21:33:36:327,-158965.875,-130305.619,-90884.205,-96249.07,-89330.624,-101701.108,-90560.417,-143126.49
0.056,09-22-2026 21:33:36:331,-158791.352,-129771.323,-52929.914,-57828.567,-51501.191,-62469.147,-52231.869,-115083.812
0.06,09-22-2026 21:33:36:335,-158714.999,-130216.569,-88560.473,-91729.011,-87014.537,-96419.882,-89465.316,-110656.021
0.064,09-22-2026 21:33:36:339,-158843.164,-131040.276,-151301.238,-153503.153,-149548.906,-158285.666,-151886.094,-134270.908
0.068,09-22-2026 21:33:36:343,-158982.236,-130995.751,-145879.197,-150489.78,-144916.731,-155267.823,-146410.587,-151982.072
0.072,09-22-2026 21:33:36:347,-158944.059,-130272.225,-90884.205,-96249.07,-89330.624,-101701.108,-90560.417,-143126.49
0.07600001,09-22-2026 21:33:36:351,-158769.537,-129749.06,-52929.914,-57828.567,-51501.191,-62469.147,-52231.869,-115083.812
0.08000001,09-22-2026 21:33:36:355,-158695.91,-130183.176,-88560.473,-91729.011,-87014.537,-96419.882,-89465.316,-110656.021
0.08400001,09-22-2026 21:33:36:359,-158826.802,-131018.013,-151301.238,-153503.153,-149548.906,-158285.666,-151886.094,-134270.908
0.08800001,09-22-2026 21:33:36:363,-158963.148,-130973.489,-146653.774,-150489.78,-144916.731,-155267.823,-146410.587,-151982.072
0.09200001,09-22-2026 21:33:36:367,-158924.971,-130249.963,-90884.205,-97002.414,-90102.654,-101701.108,-90560.417,-143126.49
0.096,09-22-2026 21:33:36:371,-158750.449,-129726.798,-52929.914,-57828.567,-51501.191,-62469.147,-53326.971,-116559.743
0.1,09-22-2026 21:33:36:375,-158676.822,-130160.913,-89335.05,-91729.011,-87786.566,-96419.882,-89465.316,-110656.021
0.104,09-22-2026 21:33:36:379,-158844.237,-130657.748,-154099.587,-156381.924,-152287.621,-161077.355,-154576.797,-136498.795
0.108,09-22-2026 21:33:36:383,-158981.834,-130595.789,-147170.233,-151131.678,-145377.176,-155817.721,-146789.449,-154125.739
0.112,09-22-2026 21:33:36:387,-158940.796,-129872.934,-90965.476,-97129.148,-90093.623,-101718.632,-90720.545,-143353.718
0.116,09-22-2026 21:33:36:391,-158766.989,-129377.261,-56318.707,-61127.461,-54773.576,-65652.572,-55677.48,-116913.303
0.12,09-22-2026 21:33:36:395,-158709.053,-129841.954,-93275.26,-96379.113,-90861.451,-100215.879,-93056.749,-112669.779
0.124,09-22-2026 21:33:36:399,-158853.893,-130668.075,-154099.587,-156381.924,-152287.621,-161077.355,-154576.797,-136498.795
0.128,09-22-2026 21:33:36:403,-158993.904,-130606.116,-147170.233,-151131.678,-145377.176,-155817.721,-146789.449,-154125.739
0.132,09-22-2026 21:33:36:407,-158950.452,-129872.934,-90965.476,-97129.148,-90093.623,-101718.632,-90720.545,-143353.718
0.136,09-22-2026 21:33:36:411,-158776.645,-129387.588,-56318.707,-61127.461,-54773.576,-65652.572,-55677.48,-116913.303
0.14,09-22-2026 21:33:36:415,-158716.295,-129852.281,-93275.26,-95629.078,-91629.278,-100215.879,-93056.749,-112669.779
0.144,09-22-2026 21:33:36:419,-158861.135,-130678.401,-154099.587,-156381.924,-152287.621,-161077.355,-154576.797,-136825.22
0.148,09-22-2026 21:33:36:423,-158998.732,-130616.442,-147170.233,-151131.678,-145377.176,-155817.721,-146789.449,-154125.739
0.152,09-22-2026 21:33:36:427,-158955.28,-129883.26,-90965.476,-97129.148,-90093.623,-101718.632,-90720.545,-143353.718
0.156,09-22-2026 21:33:36:431,-158781.473,-129387.588,-56318.707,-61127.461,-54773.576,-65652.572,-55677.48,-116913.303
0.16,09-22-2026 21:33:36:435,-158721.123,-129852.281,-93275.26,-96379.113,-90861.451,-100215.879,-93056.749,-112669.779
0.164,09-22-2026 21:33:36:439,-158865.962,-130678.401,-154099.587,-156381.924,-152287.621,-161077.355,-154576.797,-136825.22
0.168,09-22-2026 21:33:36:443,-159003.56,-130616.442,-147170.233,-151131.678,-145377.176,-155817.721,-146789.449,-154125.739
0.172,09-22-2026 21:33:36:447,-158960.108,-129883.26,-90965.476,-97129.148,-90093.623,-101718.632,-90720.545,-143353.718
0.176,09-22-2026 21:33:36:451,-158788.715,-129397.914,-56318.707,-61127.461,-54773.576,-65652.572,-55677.48,-116913.303
0.18,09-22-2026 21:33:36:455,-158730.779,-129862.607,-93275.26,-96379.113,-91629.278,-100967.255,-93835.484,-112669.779
0.184,09-22-2026 21:33:36:459,-158878.032,-130688.728,-154099.587,-156381.924,-152287.621,-161077.355,-154576.797,-136825.22
0.188,09-22-2026 21:33:36:463,-159015.63,-130626.769,-146400.305,-151131.678,-145377.176,-155817.721,-146789.449,-154125.739
0.192,09-22-2026 21:33:36:467,-158972.178,-129893.587,-90965.476,-97129.148,-90093.623,-101718.632,-90720.545,-143680.143
0.196,09-22-2026 21:33:36:471,-158798.371,-129408.241,-56318.707,-61127.461,-54773.576,-65652.572,-55677.48,-116913.303
0.2,09-22-2026 21:33:36:475,-158740.435,-129872.934,-93275.26,-96379.113,-91629.278,-100215.879,-93056.749,-112669.779
0.204,09-22-2026 21:33:36:479,-158754.248,-130609.424,-154006.693,-156279.106,-152380.157,-161188.041,-154673.133,-136896.88
0.208,09-22-2026 21:33:36:483,-158896.048,-130547.465,-147074.523,-151027.608,-145472.529,-155929.346,-146888.914,-154100.258
0.212,09-22-2026 21:33:36:487,-158855.144,-129824.609,-91617.163,-97012.204,-90211.507,-101839.912,-90842.541,-143388.721
0.216,09-22-2026 21:33:36:491,-158683.349,-129328.937,-56186.072,-61001.934,-54905.853,-65780.29,-55813.558,-117096.766
0.22,09-22-2026 21:33:36:495,-158626.084,-129793.63,-93157.645,-95511.776,-91746.535,-100337.428,-93177.807,-112877.069
0.224,09-22-2026 21:33:36:499,-158773.337,-130619.75,-154006.693,-156279.106,-152380.157,-161188.041,-154673.133,-136896.88
0.228,09-22-2026 21:33:36:503,-158915.136,-130557.791,-147074.523,-151027.608,-145472.529,-155929.346,-146888.914,-154100.258
0.232,09-22-2026 21:33:36:507,-158871.506,-129824.609,-91617.163,-97012.204,-90211.507,-101839.912,-90842.541,-143388.721
0.236,09-22-2026 21:33:36:511,-158699.71,-129339.263,-56186.072,-61001.934,-54905.853,-65780.29,-55813.558,-117096.766
0.24,09-22-2026 21:33:36:515,-158639.718,-129793.63,-93157.645,-95511.776,-91746.535,-100337.428,-93177.807,-112877.069
0.244,09-22-2026 21:33:36:519,-158786.971,-130630.077,-154006.693,-156279.106,-152380.157,-161188.041,-154673.133,-136896.88
0.248,09-22-2026 21:33:36:523,-158928.771,-130568.118,-147074.523,-151027.608,-145472.529,-155929.346,-146888.914,-154100.258
0.252,09-22-2026 21:33:36:527,-158887.867,-129834.936,-91617.163,-97012.204,-90211.507,-101839.912,-90842.541,-143388.721
0.256,09-22-2026 21:33:36:531,-158713.345,-129339.263,-56186.072,-61001.934,-54905.853,-65780.29,-55813.558,-117096.766
0.26,09-22-2026 21:33:36:535,-158658.807,-129803.956,-93157.645,-95511.776,-91746.535,-100337.428,-93177.807,-112877.069
0.264,09-22-2026 21:33:36:539,-158806.06,-130630.077,-154006.693,-156279.106,-152380.157,-161188.041,-154673.133,-136896.88
0.268,09-22-2026 21:33:36:543,-158947.859,-130578.444,-147074.523,-151027.608,-145472.529,-155929.346,-146888.914,-154100.258
0.272,09-22-2026 21:33:36:547,-158906.956,-129845.262,-90846.922,-97012.204,-89443.992,-101839.912,-90064.119,-143388.721
0.276,09-22-2026 21:33:36:551,-158735.16,-129349.59,-56186.072,-61001.934,-54905.853,-65780.29,-55813.558,-117096.766
0.28,09-22-2026 21:33:36:555,-158680.622,-129824.609,-93157.645,-96261.99,-91746.535,-101088.67,-93956.228,-112877.069
0.284,09-22-2026 21:33:36:559,-158827.875,-130640.403,-154006.693,-156279.106,-152380.157,-161188.041,-154673.133,-136896.88
0.288,09-22-2026 21:33:36:563,-158969.675,-130588.771,-147074.523,-151027.608,-145472.529,-155929.346,-146888.914,-154100.258
0.292,09-22-2026 21:33:36:567,-158928.771,-129855.589,-90846.922,-97012.204,-89443.992,-101839.912,-90064.119,-143388.721
0.296,09-22-2026 21:33:36:571,-158756.975,-129370.243,-56186.072,-61001.934,-54905.853,-65780.29,-55813.558,-117096.766
0.3,09-22-2026 21:33:36:575,-158699.71,-129834.936,-93157.645,-96261.99,-91746.535,-100337.428,-93177.807,-112877.069
0.304,09-22-2026 21:33:36:579,-158844.237,-130657.748,-154099.587,-156381.924,-152287.621,-161077.355,-154576.797,-136498.795
0.308,09-22-2026 21:33:36:583,-158981.834,-130595.789,-147170.233,-151131.678,-145377.176,-155817.721,-146789.449,-154125.739
0.312,09-22-2026 21:33:36:587,-158940.796,-129872.934,-90965.476,-97129.148,-90093.623,-101718.632,-90720.545,-143353.718
0.316,09-22-2026 21:33:36:591,-158766.989,-129377.261,-56318.707,-61127.461,-54773.576,-65652.572,-55677.48,-116913.303
0.32,09-22-2026 21:33:36:595,-158709.053,-129841.954,-93275.26,-96379.113,-90861.451,-100215.879,-93056.749,-112669.779
0.324,09-22-2026 21:33:36:599,-158853.893,-130668.075,-154099.587,-156381.924,-152287.621,-161077.355,-154576.797,-136498.795
0.328,09-22-2026 21:33:36:603,-158993.904,-130606.116,-147170.233,-151131.678,-145377.176,-155817.721,-146789.449,-154125.739
0.332,09-22-2026 21:33:36:607,-158950.452,-129872.934,-90965.476,-97129.148,-90093.623,-101718.632,-90720.545,-143353.718
0.336,09-22-2026 21:33:36:611,-158776.645,-129387.588,-56318.707,-61127.461,-54773.576,-65652.572,-55677.48,-116913.303
0.34,09-22-2026 21:33:36:615,-158716.295,-129852.281,-93275.26,-95629.078,-91629.278,-100215.879,-93056.749,-112669.779
0.344,09-22-2026 21:33:36:619,-158861.135,-130678.401,-154099.587,-156381.924,-152287.621,-161077.355,-154576.797,-136825.22
0.348,09-22-2026 21:33:36:623,-158998.732,-130616.442,-147170.233,-151131.678,-145377.176,-155817.721,-146789.449,-154125.739
0.352,09-22-2026 21:33:36:627,-158955.28,-129883.26,-90965.476,-97129.148,-90093.623,-101718.632,-90720.545,-143353.718
0.356,09-22-2026 21:33:36:631,-158781.473,-129387.588,-56318.707,-61127.461,-54773.576,-65652.572,-55677.48,-116913.303
0.36,09-22-2026 21:33:36:635,-158721.123,-129852.281,-93275.26,-96379.113,-90861.451,-100215.879,-93056.749,-112669.779
0.364,09-22-2026 21:33:36:639,-158865.962,-130678.401,-154099.587,-156381.924,-152287.621,-161077.355,-154576.797,-136825.22
0.368,09-22-2026 21:33:36:643,-159003.56,-130616.442,-147170.233,-151131.678,-145377.176,-155817.721,-146789.449,-154125.739
0.372,09-22-2026 21:33:36:647,-158960.108,-129883.26,-90965.476,-97129.148,-90093.623,-101718.632,-90720.545,-143353.718
0.376,09-22-2026 21:33:36:651,-158788.715,-129397.914,-56318.707,-61127.461,-54773.576,-65652.572,-55677.48,-116913.303
0.38,09-22-2026 21:33:36:655,-158730.779,-129862.607,-93275.26,-96379.113,-91629.278,-100967.255,-93835.484,-112669.779
0.384,09-22-2026 21:33:36:659,-158878.032,-130688.728,-154099.587,-156381.924,-152287.621,-161077.355,-154576.797,-136825.22
0.388,09-22-2026 21:33:36:663,-159015.63,-130626.769,-146400.305,-151131.678,-145377.176,-155817.721,-146789.449,-154125.739
0.392,09-22-2026 21:33:36:667,-158972.178,-129893.587,-90965.476,-97129.148,-90093.623,-101718.632,-90720.545,-143680.143
0.396,09-22-2026 21:33:36:671,-158798.371,-129408.241,-56318.707,-61127.461,-54773.576,-65652.572,-55677.48,-116913.303
0.4,09-22-2026 21:33:36:675,-158740.435,-129872.934,-93275.26,-96379.113,-91629.278,-100215.879,-93056.749,-112669.779
0.404,09-22-2026 21:33:36:679,-158754.248,-130609.424,-154006.693,-156279.106,-152380.157,-161188.041,-154673.133,-136896.88
0.408,09-22-2026 21:33:36:683,-158896.048,-130547.465,-147074.523,-151027.608,-145472.529,-155929.346,-146888.914,-154100.258
0.412,09-22-2026 21:33:36:687,-158855.144,-129824.609,-91617.163,-97012.204,-90211.507,-101839.912,-90842.541,-143388.721
0.416,09-22-2026 21:33:36:691,-158683.349,-129328.937,-56186.072,-61001.934,-54905.853,-65780.29,-55813.558,-117096.766
0.42,09-22-2026 21:33:36:695,-158626.084,-129793.63,-93157.645,-95511.776,-91746.535,-100337.428,-93177.807,-112877.069
0.424,09-22-2026 21:33:36:699,-158773.337,-130619.75,-154006.693,-156279.106,-152380.157,-161188.041,-154673.133,-136896.88
0.428,09-22-2026 21:33:36:703,-158915.136,-130557.791,-147074.523,-151027.608,-145472.529,-155929.346,-146888.914,-154100.258
0.432,09-22-2026 21:33:36:707,-158871.506,-129824.609,-91617.163,-97012.204,-90211.507,-101839.912,-90842.541,-143388.721
0.436,09-22-2026 21:33:36:711,-158699.71,-129339.263,-56186.072,-61001.934,-54905.853,-65780.29,-55813.558,-117096.766
0.44,09-22-2026 21:33:36:715,-158639.718,-129793.63,-93157.645,-95511.776,-91746.535,-100337.428,-93177.807,-112877.069
0.444,09-22-2026 21:33:36:719,-158786.971,-130630.077,-154006.693,-156279.106,-152380.157,-161188.041,-154673.133,-136896.88
0.448,09-22-2026 21:33:36:723,-158928.771,-130568.118,-147074.523,-151027.608,-145472.529,-155929.346,-146888.914,-154100.258
0.452,09-22-2026 21:33:36:727,-158887.867,-129834.936,-91617.163,-97012.204,-90211.507,-101839.912,-90842.541,-143388.721
0.456,09-22-2026 21:33:36:731,-158713.345,-129339.263,-56186.072,-61001.934,-54905.853,-65780.29,-55813.558,-117096.766
0.46,09-22-2026 21:33:36:735,-158658.807,-129803.956,-93157.645,-95511.776,-91746.535,-100337.428,-93177.807,-112877.069
0.464,09-22-2026 21:33:36:739,-158806.06,-130630.077,-154006.693,-156279.106,-152380.157,-161188.041,-154673.133,-136896.88
0.468,09-22-2026 21:33:36:743,-158947.859,-130578.444,-147074.523,-151027.608,-145472.529,-155929.346,-146888.914,-154100.258
0.472,09-22-2026 21:33:36:747,-158906.956,-129845.262,-90846.922,-97012.204,-89443.992,-101839.912,-90064.119,-143388.721
0.476,09-22-2026 21:33:36:751,-158735.16,-129349.59,-56186.072,-61001.934,-54905.853,-65780.29,-55813.558,-117096.766
0.48,09-22-2026 21:33:36:755,-158680.622,-129824.609,-93157.645,-96261.99,-91746.535,-101088.67,-93956.228,-112877.069
0.484,09-22-2026 21:33:36:759,-158827.875,-130640.403,-154006.693,-156279.106,-152380.157,-161188.041,-154673.133,-136896.88
0.488,09-22-2026 21:33:36:763,-158969.675,-130588.771,-147074.523,-151027.608,-145472.529,-155929.346,-146888.914,-154100.258
0.492,09-22-2026 21:33:36:767,-158928.771,-129855.589,-90846.922,-97012.204,-89443.992,-101839.912,-90064.119,-143388.721
0.496,09-22-2026 21:33:36:771,-158756.975,-129370.243,-56186.072,-61001.934,-54905.853,-65780.29,-55813.558,-117096.766
0.5,09-22-2026 21:33:36:775,-158699.71,-129834.936,-93157.645,-96261.99,-91746.535,-100337.428,-93177.807,-112877.069
0.504,09-22-2026 21:33:36:779,-158844.237,-130657.748,-154099.587,-156381.924,-152287.621,-161077.355,-154576.797,-136498.795
0.508,09-22-2026 21:33:36:783,-158981.834,-130595.789,-147170.233,-151131.678,-145377.176,-155817.721,-146789.449,-154125.739
0.512,09-22-2026 21:33:36:787,-158940.796,-129872.934,-90965.476,-97129.148,-90093.623,-101718.632,-90720.545,-143353.718
0.516,09-22-2026 21:33:36:791,-158766.989,-129377.261,-56318.707,-61127.461,-54773.576,-65652.572,-55677.48,-116913.303
0.52,09-22-2026 21:33:36:795,-158709.053,-129841.954,-93275.26,-96379.113,-90861.451,-100215.879,-93056.749,-112669.779
0.524,09-22-2026 21:33:36:799,-158853.893,-130668.075,-154099.587,-156381.924,-152287.621,-161077.355,-154576.797,-136498.795
0.528,09-22-2026 21:33:36:803,-158993.904,-130606.116,-147170.233,-151131.678,-145377.176,-155817.721,-146789.449,-154125.739
0.532,09-22-2026 21:33:36:807,-158950.452,-129872.934,-90965.476,-97129.148,-90093.623,-101718.632,-90720.545,-143353.718
0.536,09-22-2026 21:33:36:811,-158776.645,-129387.588,-56318.707,-61127.461,-54773.576,-65652.572,-55677.48,-116913.303
0.54,09-22-2026 21:33:36:815,-158716.295,-129852.281,-93275.26,-95629.078,-91629.278,-100215.879,-93056.749,-112669.779
0.544,09-22-2026 21:33:36:819,-158861.135,-130678.401,-154099.587,-156381.924,-152287.621,-161077.355,-154576.797,-136825.22
0.548,09-22-2026 21:33:36:823,-158998.732,-130616.442,-147170.233,-151131.678,-145377.176,-155817.721,-146789.449,-154125.739
0.552,09-22-2026 21:33:36:827,-158955.28,-129883.26,-90965.476,-97129.148,-90093.623,-101718.632,-90720.545,-143353.718
0.5560001,09-22-2026 21:33:36:831,-158781.473,-129387.588,-56318.707,-61127.461,-54773.576,-65652.572,-55677.48,-116913.303
0.56,09-22-2026 21:33:36:835,-158721.123,-129852.281,-93275.26,-96379.113,-90861.451,-100215.879,-93056.749,-112669.779
0.564,09-22-2026 21:33:36:839,-158865.962,-130678.401,-154099.587,-156381.924,-152287.621,-161077.355,-154576.797,-136825.22
0.568,09-22-2026 21:33:36:843,-159003.56,-130616.442,-147170.233,-151131.678,-145377.176,-155817.721,-146789.449,-154125.739
0.572,09-22-2026 21:33:36:847,-158960.108,-129883.26,-90965.476,-97129.148,-90093.623,-101718.632,-90720.545,-143353.718
0.576,09-22-2026 21:33:36:851,-158788.715,-129397.914,-56318.707,-61127.461,-54773.576,-65652.572,-55677.48,-116913.303
0.58,09-22-2026 21:33:36:855,-158730.779,-129862.607,-93275.26,-96379.113,-91629.278,-100967.255,-93835.484,-112669.779
0.5840001,09-22-2026 21:33:36:859,-158878.032,-130688.728,-154099.587,-156381.924,-152287.621,-161077.355,-154576.797,-136825.22
0.588,09-22-2026 21:33:36:863,-159015.63,-130626.769,-146400.305,-151131.678,-145377.176,-155817.721,-146789.449,-154125.739
0.592,09-22-2026 21:33:36:867,-158972.178,-129893.587,-90965.476,-97129.148,-90093.623,-101718.632,-90720.545,-143680.143
0.596,09-22-2026 21:33:36:871,-158798.371,-129408.241,-56318.707,-61127.461,-54773.576,-65652.572,-55677.48,-116913.303
0.6,09-22-2026 21:33:36:875,-158740.435,-129872.934,-93275.26,-96379.113,-91629.278,-100215.879,-93056.749,-112669.779
0.604,09-22-2026 21:33:36:879,-158754.248,-130609.424,-154006.693,-156279.106,-152380.157,-161188.041,-154673.133,-136896.88
0.608,09-22-2026 21:33:36:883,-158896.048,-130547.465,-147074.523,-151027.608,-145472.529,-155929.346,-146888.914,-154100.258
0.612,09-22-2026 21:33:36:887,-158855.144,-129824.609,-91617.163,-97012.204,-90211.507,-101839.912,-90842.541,-143388.721
0.6160001,09-22-2026 21:33:36:891,-158683.349,-129328.937,-56186.072,-61001.934,-54905.853,-65780.29,-55813.558,-117096.766
0.62,09-22-2026 21:33:36:895,-158626.084,-129793.63,-93157.645,-95511.776,-91746.535,-100337.428,-93177.807,-112877.069
0.624,09-22-2026 21:33:36:899,-158773.337,-130619.75,-154006.693,-156279.106,-152380.157,-161188.041,-154673.133,-136896.88
0.628,09-22-2026 21:33:36:903,-158915.136,-130557.791,-147074.523,-151027.608,-145472.529,-155929.346,-146888.914,-154100.258
0.632,09-22-2026 21:33:36:907,-158871.506,-129824.609,-91617.163,-97012.204,-90211.507,-101839.912,-90842.541,-143388.721
0.636,09-22-2026 21:33:36:911,-158699.71,-129339.263,-56186.072,-61001.934,-54905.853,-65780.29,-55813.558,-117096.766
0.64,09-22-2026 21:33:36:915,-158639.718,-129793.63,-93157.645,-95511.776,-91746.535,-100337.428,-93177.807,-112877.069
0.6440001,09-22-2026 21:33:36:919,-158786.971,-130630.077,-154006.693,-156279.106,-152380.157,-161188.041,-154673.133,-136896.88
0.648,09-22-2026 21:33:36:923,-158928.771,-130568.118,-147074.523,-151027.608,-145472.529,-155929.346,-146888.914,-154100.258
0.652,09-22-2026 21:33:36:927,-158887.867,-129834.936,-91617.163,-97012.204,-90211.507,-101839.912,-90842.541,-143388.721
0.656,09-22-2026 21:33:36:931,-158713.345,-129339.263,-56186.072,-61001.934,-54905.853,-65780.29,-55813.558,-117096.766
0.66,09-22-2026 21:33:36:935,-158658.807,-129803.956,-93157.645,-95511.776,-91746.535,-100337.428,-93177.807,-112877.069
0.664,09-22-2026 21:33:36:939,-158806.06,-130630.077,-154006.693,-156279.106,-152380.157,-161188.041,-154673.133,-136896.88
0.668,09-22-2026 21:33:36:943,-158947.859,-130578.444,-147074.523,-151027.608,-145472.529,-155929.346,-146888.914,-154100.258
0.6720001,09-22-2026 21:33:36:947,-158906.956,-129845.262,-90846.922,-97012.204,-89443.992,-101839.912,-90064.119,-143388.721
0.6760001,09-22-2026 21:33:36:951,-158735.16,-129349.59,-56186.072,-61001.934,-54905.853,-65780.29,-55813.558,-117096.766
0.68,09-22-2026 21:33:36:955,-158680.622,-129824.609,-93157.645,-96261.99,-91746.535,-101088.67,-93956.228,-112877.069
0.684,09-22-2026 21:33:36:959,-158827.875,-130640.403,-154006.693,-156279.106,-152380.157,-161188.041,-154673.133,-136896.88
0.688,09-22-2026 21:33:36:963,-158969.675,-130588.771,-147074.523,-151027.608,-145472.529,-155929.346,-146888.914,-154100.258
0.692,09-22-2026 21:33:36:967,-158928.771,-129855.589,-90846.922,-97012.204,-89443.992,-101839.912,-90064.119,-143388.721
0.696,09-22-2026 21:33:36:971,-158756.975,-129370.243,-56186.072,-61001.934,-54905.853,-65780.29,-55813.558,-117096.766
0.7,09-22-2026 21:33:36:975,-158699.71,-129834.936,-93157.645,-96261.99,-91746.535,-100337.428,-93177.807,-112877.069
0.7040001,09-22-2026 21:33:36:979,-158844.237,-130657.748,-154099.587,-156381.924,-152287.621,-161077.355,-154576.797,-136498.795
0.708,09-22-2026 21:33:36:983,-158981.834,-130595.789,-147170.233,-151131.678,-145377.176,-155817.721,-146789.449,-154125.739
0.712,09-22-2026 21:33:36:987,-158940.796,-129872.934,-90965.476,-97129.148,-90093.623,-101718.632,-90720.545,-143353.718
0.716,09-22-2026 21:33:36:991,-158766.989,-129377.261,-56318.707,-61127.461,-54773.576,-65652.572,-55677.48,-116913.303
0.72,09-22-2026 21:33:36:995,-158709.053,-129841.954,-93275.26,-96379.113,-90861.451,-100215.879,-93056.749,-112669.779
0.724,09-22-2026 21:33:36:999,-158853.893,-130668.075,-154099.587,-156381.924,-152287.621,-161077.355,-154576.797,-136498.795
0.728,09-22-2026 21:33:37:003,-158993.904,-130606.116,-147170.233,-151131.678,-145377.176,-155817.721,-146789.449,-154125.739
0.7320001,09-22-2026 21:33:37:007,-158950.452,-129872.934,-90965.476,-97129.148,-90093.623,-101718.632,-90720.545,-143353.718
0.7360001,09-22-2026 21:33:37:011,-158776.645,-129387.588,-56318.707,-61127.461,-54773.576,-65652.572,-55677.48,-116913.303
0.74,09-22-2026 21:33:37:015,-158716.295,-129852.281,-93275.26,-95629.078,-91629.278,-100215.879,-93056.749,-112669.779
0.744,09-22-2026 21:33:37:019,-158861.135,-130678.401,-154099.587,-156381.924,-152287.621,-161077.355,-154576.797,-136825.22
0.748,09-22-2026 21:33:37:023,-158998.732,-130616.442,-147170.233,-151131.678,-145377.176,-155817.721,-146789.449,-154125.739
0.752,09-22-2026 21:33:37:027,-158955.28,-129883.26,-90965.476,-97129.148,-90093.623,-101718.632,-90720.545,-143353.718
0.756,09-22-2026 21:33:37:031,-158781.473,-129387.588,-56318.707,-61127.461,-54773.576,-65652.572,-55677.48,-116913.303
0.7600001,09-22-2026 21:33:37:035,-158721.123,-129852.281,-93275.26,-96379.113,-90861.451,-100215.879,-93056.749,-112669.779
0.7640001,09-22-2026 21:33:37:039,-158865.962,-130678.401,-154099.587,-156381.924,-152287.621,-161077.355,-154576.797,-136825.22
0.768,09-22-2026 21:33:37:043,-159003.56,-130616.442,-147170.233,-151131.678,-145377.176,-155817.721,-146789.449,-154125.739
0.772,09-22-2026 21:33:37:047,-158960.108,-129883.26,-90965.476,-97129.148,-90093.623,-101718.632,-90720.545,-143353.718
0.776,09-22-2026 21:33:37:051,-158788.715,-129397.914,-56318.707,-61127.461,-54773.576,-65652.572,-55677.48,-116913.303
0.78,09-22-2026 21:33:37:055,-158730.779,-129862.607,-93275.26,-96379.113,-91629.278,-100967.255,-93835.484,-112669.779
0.784,09-22-2026 21:33:37:059,-158878.032,-130688.728,-154099.587,-156381.924,-152287.621,-161077.355,-154576.797,-136825.22
0.788,09-22-2026 21:33:37:063,-159015.63,-130626.769,-146400.305,-151131.678,-145377.176,-155817.721,-146789.449,-154125.739
0.7920001,09-22-2026 21:33:37:067,-158972.178,-129893.587,-90965.476,-97129.148,-90093.623,-101718.632,-90720.545,-143680.143
0.7960001,09-22-2026 21:33:37:071,-158798.371,-129408.241,-56318.707,-61127.461,-54773.576,-65652.572,-55677.48,-116913.303
0.8,09-22-2026 21:33:37:075,-158740.435,-129872.934,-93275.26,-96379.113,-91629.278,-100215.879,-93056.749,-112669.779
0.804,09-22-2026 21:33:37:079,-158887.197,-130705.491,-154248.897,-156530.16,-152380.157,-161188.041,-154673.133,-136896.88
0.808,09-22-2026 21:33:37:083,-159026.269,-130643.801,-146549.168,-151278.663,-145472.529,-155929.346,-146888.914,-154100.258
0.812,09-22-2026 21:33:37:087,-158982.952,-129913.793,-91111.12,-96513.044,-90211.507,-101839.912,-90842.541,-143388.721
0.816,09-22-2026 21:33:37:091,-158811.961,-129430.548,-56462.339,-61252.989,-54905.853,-65780.29,-55813.558,-117096.766
0.8200001,09-22-2026 21:33:37:095,-158752.684,-129893.229,-93421.038,-96513.044,-91746.535,-100337.428,-93177.807,-112877.069
0.8240001,09-22-2026 21:33:37:099,-158900.876,-130726.055,-154248.897,-156530.16,-152380.157,-161188.041,-154673.133,-136896.88
0.8280001,09-22-2026 21:33:37:103,-159037.669,-130654.082,-146549.168,-150528.449,-145472.529,-155929.346,-146888.914,-154100.258
0.832,09-22-2026 21:33:37:107,-158994.351,-129924.074,-91111.12,-96513.044,-90211.507,-101839.912,-90842.541,-143388.721
0.836,09-22-2026 21:33:37:111,-158818.8,-129440.83,-56462.339,-61252.989,-54905.853,-65780.29,-55813.558,-117096.766
0.84,09-22-2026 21:33:37:115,-158759.523,-129903.511,-93421.038,-96513.044,-91746.535,-100337.428,-93177.807,-112877.069
0.844,09-22-2026 21:33:37:119,-158900.876,-130726.055,-154248.897,-156530.16,-152380.157,-161188.041,-154673.133,-136896.88
0.848,09-22-2026 21:33:37:123,-159037.669,-130664.364,-146549.168,-151278.663,-145472.529,-155929.346,-146888.914,-154100.258
0.8520001,09-22-2026 21:33:37:127,-158994.351,-129934.356,-91111.12,-96513.044,-90211.507,-101839.912,-90842.541,-143388.721
0.8560001,09-22-2026 21:33:37:131,-158816.52,-129440.83,-56462.339,-61252.989,-54905.853,-65780.29,-55813.558,-117096.766
0.86,09-22-2026 21:33:37:135,-158759.523,-129913.793,-93421.038,-95762.83,-91746.535,-100337.428,-93177.807,-112877.069
0.864,09-22-2026 21:33:37:139,-158903.156,-130736.337,-154248.897,-156530.16,-152380.157,-161188.041,-154673.133,-136896.88
0.868,09-22-2026 21:33:37:143,-159039.948,-130674.646,-147319.141,-151278.663,-145472.529,-155929.346,-146888.914,-154100.258
0.872,09-22-2026 21:33:37:147,-158992.071,-129934.356,-91111.12,-96513.044,-89443.992,-101839.912,-90064.119,-143388.721
0.876,09-22-2026 21:33:37:151,-158818.8,-129451.111,-56462.339,-61252.989,-54905.853,-65780.29,-55813.558,-117096.766
0.8800001,09-22-2026 21:33:37:155,-158759.523,-129913.793,-93421.038,-96513.044,-91746.535,-101088.67,-93956.228,-112877.069
0.8840001,09-22-2026 21:33:37:159,-158905.436,-130736.337,-154248.897,-156530.16,-152380.157,-161188.041,-154673.133,-136896.88
0.8880001,09-22-2026 21:33:37:163,-159042.228,-130674.646,-146549.168,-150528.449,-145472.529,-155929.346,-146888.914,-154100.258
0.892,09-22-2026 21:33:37:167,-158998.911,-129944.638,-91111.12,-96513.044,-89443.992,-101839.912,-90064.119,-143388.721
0.896,09-22-2026 21:33:37:171,-158825.64,-129451.111,-56462.339,-61252.989,-54905.853,-65780.29,-55813.558,-117096.766
0.9,09-22-2026 21:33:37:175,-158768.643,-129924.074,-93421.038,-96513.044,-91746.535,-100337.428,-93177.807,-112877.069
0.904,09-22-2026 21:33:37:179,-158914.51,-130741.209,-154162.977,-156450.409,-152527.5,-161338.11,-154822.979,-136932.866
0.9080001,09-22-2026 21:33:37:183,-159051.303,-130680.055,-147228.393,-151193.905,-145619.067,-156078.476,-147038.76,-154124.398
0.9120001,09-22-2026 21:33:37:187,-159005.706,-129946.203,-90981.211,-96376.073,-89584.004,-101228.011,-90213.965,-143420.237
0.9160001,09-22-2026 21:33:37:191,-158832.435,-129456.968,-56308.291,-61082.4,-55041.841,-65913.327,-55963.404,-116822.018
0.92,09-22-2026 21:33:37:195,-158773.158,-129925.818,-93292.739,-96376.073,-91886.814,-101228.011,-93327.653,-112929.596
0.924,09-22-2026 21:33:37:199,-158919.07,-130741.209,-154162.977,-156450.409,-152527.5,-161338.11,-154822.979,-137257.235
0.928,09-22-2026 21:33:37:203,-159055.863,-130680.055,-147228.393,-151193.905,-145619.067,-156078.476,-147038.76,-154124.398
0.932,09-22-2026 21:33:37:207,-159012.545,-129946.203,-90981.211,-96376.073,-89584.004,-101228.011,-90213.965,-143420.237
0.936,09-22-2026 21:33:37:211,-158836.995,-129456.968,-56308.291,-61082.4,-55041.841,-65913.327,-55963.404,-116822.018
0.9400001,09-22-2026 21:33:37:215,-158779.998,-129925.818,-93292.739,-96376.073,-91886.814,-101228.011,-93327.653,-112929.596
0.9440001,09-22-2026 21:33:37:219,-158923.63,-130741.209,-154162.977,-156450.409,-152527.5,-161338.11,-154822.979,-136932.866
0.9480001,09-22-2026 21:33:37:223,-159060.423,-130680.055,-146457.883,-150442.976,-145619.067,-156078.476,-147038.76,-154124.398
0.952,09-22-2026 21:33:37:227,-159014.825,-129936.01,-90210.702,-96376.073,-89584.004,-101228.011,-90213.965,-143420.237
0.956,09-22-2026 21:33:37:231,-158836.995,-129446.775,-56308.291,-61082.4,-55041.841,-65913.327,-55963.404,-116822.018
0.96,09-22-2026 21:33:37:235,-158775.438,-129915.625,-93292.739,-96376.073,-91886.814,-100476.635,-93327.653,-112929.596
0.964,09-22-2026 21:33:37:239,-158919.07,-130741.209,-154162.977,-156450.409,-152527.5,-161338.11,-154822.979,-136932.866
0.9680001,09-22-2026 21:33:37:243,-159053.583,-130669.863,-146457.883,-150442.976,-145619.067,-156078.476,-147038.76,-154124.398
0.9720001,09-22-2026 21:33:37:247,-159007.985,-129925.818,-90210.702,-96376.073,-89584.004,-101228.011,-90213.965,-143420.237
0.9760001,09-22-2026 21:33:37:251,-158830.155,-129446.775,-56308.291,-61082.4,-55041.841,-65913.327,-55963.404,-117146.387
0.98,09-22-2026 21:33:37:255,-158773.158,-129915.625,-93292.739,-96376.073,-91886.814,-101228.011,-94106.074,-112929.596
0.984,09-22-2026 21:33:37:259,-158919.07,-130741.209,-154162.977,-156450.409,-152527.5,-161338.11,-154822.979,-136932.866
0.988,09-22-2026 21:33:37:263,-159055.863,-130669.863,-146457.883,-150442.976,-145619.067,-156078.476,-147038.76,-154124.398
0.992,09-22-2026 21:33:37:267,-159007.985,-129936.01,-90210.702,-96376.073,-89584.004,-101228.011,-90213.965,-143420.237
0.9960001,09-22-2026 21:33:37:271,-158834.715,-129446.775,-56308.291,-61082.4,-55041.841,-65913.327,-55963.404,-116822.018
1,09-22-2026 21:33:37:275,-158773.158,-129915.625,-93292.739,-96376.073,-91886.814,-101228.011,-94106.074,-112929.596
1.004,09-22-2026 21:33:37:279,-158919.16,-130735.487,-154189.307,-156479.69,-152438.54,-161257.912,-154736.746,-137193.532
1.008,09-22-2026 21:33:37:283,-159053.985,-130663.828,-146470.803,-150460.813,-145525.279,-155993.585,-146947.61,-154146.705
1.012,09-22-2026 21:33:37:287,-159007.494,-129926.757,-90125.721,-96290.913,-89451.055,-101094.169,-90086.918,-143387.961
1.016,09-22-2026 21:33:37:291,-158833.15,-129445.613,-56164.301,-60930.006,-54884.753,-65747.969,-55814.72,-116980.134
1.02,09-22-2026 21:33:37:295,-158775.036,-129916.52,-93984.973,-96290.913,-91755.476,-101094.169,-93981.486,-112741.841
1.024,09-22-2026 21:33:37:299,-158921.484,-130745.725,-154189.307,-156479.69,-152438.54,-161257.912,-154736.746,-136867.51
1.028,09-22-2026 21:33:37:303,-159058.635,-130663.828,-146470.803,-150460.813,-145525.279,-155993.585,-146947.61,-154146.705
1.032,09-22-2026 21:33:37:307,-159012.143,-129936.994,-90125.721,-96290.913,-89451.055,-101094.169,-90086.918,-143387.961
1.036,09-22-2026 21:33:37:311,-158835.475,-129445.613,-56164.301,-60930.006,-54884.753,-65747.969,-55814.72,-116980.134
1.04,09-22-2026 21:33:37:315,-158779.685,-129926.757,-93984.973,-96290.913,-91755.476,-101094.169,-93981.486,-112741.841
1.044,09-22-2026 21:33:37:319,-158923.809,-130745.725,-154189.307,-156479.69,-152438.54,-161257.912,-154736.746,-136867.51
1.048,09-22-2026 21:33:37:323,-159060.959,-130674.065,-146470.803,-150460.813,-145525.279,-155993.585,-146947.61,-154146.705
1.052,09-22-2026 21:33:37:327,-159012.143,-129936.994,-90125.721,-95538.553,-89451.055,-101094.169,-90086.918,-143061.938
1.056,09-22-2026 21:33:37:331,-158837.799,-129455.85,-56164.301,-60930.006,-54884.753,-65747.969,-55814.72,-116654.112
1.06,09-22-2026 21:33:37:335,-158782.009,-129926.757,-93984.973,-96290.913,-91755.476,-101094.169,-93981.486,-112741.841
1.064,09-22-2026 21:33:37:339,-158930.783,-130745.725,-154189.307,-156479.69,-152438.54,-161257.912,-154736.746,-136867.51
1.068,09-22-2026 21:33:37:343,-159065.608,-130674.065,-145698.952,-150460.813,-144757.139,-155241.538,-146168.696,-154146.705
1.072,09-22-2026 21:33:37:347,-159019.117,-129936.994,-90125.721,-95538.553,-89451.055,-101094.169,-90086.918,-143061.938
1.076,09-22-2026 21:33:37:351,-158842.448,-129445.613,-56164.301,-60930.006,-54884.753,-65747.969,-55814.72,-116654.112
1.08,09-22-2026 21:33:37:355,-158786.659,-129926.757,-93984.973,-96290.913,-91755.476,-101094.169,-93981.486,-112741.841
1.084,09-22-2026 21:33:37:359,-158930.783,-130745.725,-154189.307,-156479.69,-152438.54,-161257.912,-154736.746,-136867.51
1.088,09-22-2026 21:33:37:363,-159067.933,-130674.065,-146470.803,-150460.813,-144757.139,-155241.538,-146168.696,-154146.705
1.092,09-22-2026 21:33:37:367,-159019.117,-129926.757,-90125.721,-95538.553,-88682.915,-101094.169,-89308.004,-143061.938
1.096,09-22-2026 21:33:37:371,-158844.773,-129445.613,-56164.301,-60930.006,-54884.753,-65747.969,-55814.72,-116654.112
1.1,09-22-2026 21:33:37:375,-158786.659,-129926.757,-93984.973,-97043.273,-91755.476,-101094.169,-93981.486,-112741.841
1.104,09-22-2026 21:33:37:379,-158935.387,-130743.042,-154231.507,-156525.735,-152470.726,-161301.811,-154757.757,-136716.278
1.108,09-22-2026 21:33:37:383,-159072.984,-130671.383,-145732.301,-149746.853,-144775.467,-155272.92,-146175.447,-153912.548
1.112,09-22-2026 21:33:37:387,-159024.705,-129934.312,-90101.134,-95515.799,-89369.606,-101012.898,-89220.117,-142880.978
1.116,09-22-2026 21:33:37:391,-158846.069,-129442.931,-56104.309,-60868.181,-54740.942,-65593.161,-55671.088,-116599.887
1.12,09-22-2026 21:33:37:395,-158790.548,-129924.074,-93964.409,-97022.217,-92447.709,-101012.898,-93901.377,-112706.392
1.124,09-22-2026 21:33:37:399,-158940.215,-130743.042,-154231.507,-156525.735,-152470.726,-161301.811,-154757.757,-137040.736
1.128,09-22-2026 21:33:37:403,-159077.812,-130671.383,-145732.301,-149746.853,-144775.467,-155272.92,-146175.447,-153912.548
1.132,09-22-2026 21:33:37:407,-159024.705,-129924.074,-89328.478,-95515.799,-88600.08,-101012.898,-89220.117,-142880.978
1.136,09-22-2026 21:33:37:411,-158848.483,-129442.931,-56104.309,-60868.181,-54740.942,-65593.161,-55671.088,-116599.887
1.14,09-22-2026 21:33:37:415,-158790.548,-129913.837,-93964.409,-96269.008,-91678.183,-101012.898,-93901.377,-112706.392
1.144,09-22-2026 21:33:37:419,-158937.801,-130743.042,-154231.507,-156525.735,-152470.726,-161301.811,-154757.757,-137040.736
1.148,09-22-2026 21:33:37:423,-159072.984,-130671.383,-145732.301,-149746.853,-144775.467,-155272.92,-146175.447,-153912.548
1.152,09-22-2026 21:33:37:427,-159022.291,-129924.074,-90101.134,-95515.799,-88600.08,-100259.286,-89220.117,-142880.978
1.156,09-22-2026 21:33:37:431,-158843.655,-129442.931,-56104.309,-60868.181,-54740.942,-65593.161,-55671.088,-116599.887
1.16,09-22-2026 21:33:37:435,-158785.72,-129913.837,-93964.409,-96269.008,-92447.709,-101012.898,-93901.377,-112706.392
1.164,09-22-2026 21:33:37:439,-158935.387,-130743.042,-154231.507,-156525.735,-152470.726,-161301.811,-154757.757,-137040.736
1.168,09-22-2026 21:33:37:443,-159072.984,-130671.383,-145732.301,-149746.853,-144775.467,-155272.92,-146175.447,-153912.548
1.172,09-22-2026 21:33:37:447,-159024.705,-129924.074,-90101.134,-95515.799,-88600.08,-100259.286,-89220.117,-142880.978
1.176,09-22-2026 21:33:37:451,-158850.897,-129442.931,-56104.309,-60868.181,-54740.942,-65593.161,-55671.088,-116275.429
1.18,09-22-2026 21:33:37:455,-158800.204,-129924.074,-93964.409,-96269.008,-91678.183,-101012.898,-93901.377,-112706.392
1.184,09-22-2026 21:33:37:459,-158949.871,-130743.042,-154231.507,-156525.735,-152470.726,-161301.811,-154757.757,-137040.736
1.188,09-22-2026 21:33:37:463,-159089.882,-130681.62,-145732.301,-149746.853,-144775.467,-155272.92,-146175.447,-153912.548
1.192,09-22-2026 21:33:37:467,-159041.602,-129934.312,-90101.134,-95515.799,-88600.08,-100259.286,-89220.117,-142880.978
1.196,09-22-2026 21:33:37:471,-158867.795,-129453.168,-56104.309,-60868.181,-54740.942,-65593.161,-55671.088,-116275.429
1.2,09-22-2026 21:33:37:475,-158812.274,-129924.074,-93964.409,-96269.008,-92447.709,-101766.509,-93901.377,-112706.392
1.204,09-22-2026 21:33:37:479,-158965.383,-130752.654,-153963.107,-156241.108,-152510.691,-161346.425,-154794.637,-137242.527
1.208,09-22-2026 21:33:37:483,-159103.07,-130680.681,-146274.107,-150246.549,-144807.386,-154555.876,-146203.476,-153778.482
1.212,09-22-2026 21:33:37:487,-159053.896,-129930.109,-90144.407,-95546.197,-88573.258,-100231.481,-89189.406,-142754.512
1.216,09-22-2026 21:33:37:491,-158874.411,-129446.865,-56312.806,-61077.483,-54678.715,-65524.228,-55605.776,-116167.291
1.22,09-22-2026 21:33:37:495,-158822.779,-129930.109,-93988.907,-97044.837,-92424.91,-101740.492,-93875.494,-112600.712
1.224,09-22-2026 21:33:37:499,-158972.759,-130752.654,-153963.107,-156241.108,-152510.691,-161346.425,-154794.637,-136918.293
1.228,09-22-2026 21:33:37:503,-159112.905,-130680.681,-145505.207,-150246.549,-144037.055,-154555.876,-145422.461,-153778.482
1.232,09-22-2026 21:33:37:507,-159061.272,-129930.109,-89375.507,-95546.197,-88573.258,-100231.481,-89189.406,-142754.512
1.236,09-22-2026 21:33:37:511,-158884.246,-129457.146,-56312.806,-61077.483,-54678.715,-65524.228,-55605.776,-116167.291
1.24,09-22-2026 21:33:37:515,-158832.614,-129930.109,-93988.907,-97044.837,-91654.58,-100985.986,-93875.494,-112600.712
1.244,09-22-2026 21:33:37:519,-158982.594,-130752.654,-153963.107,-156241.108,-152510.691,-161346.425,-154794.637,-136918.293
1.248,09-22-2026 21:33:37:523,-159120.281,-130680.681,-145505.207,-149497.229,-144037.055,-154555.876,-145422.461,-153778.482
1.252,09-22-2026 21:33:37:527,-159071.107,-129940.391,-89375.507,-95546.197,-88573.258,-100231.481,-89189.406,-142754.512
1.256,09-22-2026 21:33:37:531,-158894.081,-129446.865,-56312.806,-61077.483,-54678.715,-65524.228,-55605.776,-116167.291
1.26,09-22-2026 21:33:37:535,-158842.448,-129930.109,-93988.907,-97044.837,-91654.58,-100985.986,-93875.494,-112600.712
1.264,09-22-2026 21:33:37:539,-158992.429,-130752.654,-153963.107,-156241.108,-152510.691,-161346.425,-154794.637,-136918.293
1.268,09-22-2026 21:33:37:543,-159127.657,-130680.681,-145505.207,-149497.229,-144807.386,-155310.381,-146203.476,-153778.482
1.272,09-22-2026 21:33:37:547,-159078.483,-129930.109,-89375.507,-95546.197,-88573.258,-100231.481,-89189.406,-142754.512
1.276,09-22-2026 21:33:37:551,-158903.916,-129457.146,-56312.806,-61077.483,-54678.715,-65524.228,-55605.776,-116167.291
1.28,09-22-2026 21:33:37:555,-158849.825,-129930.109,-93988.907,-96295.517,-91654.58,-100985.986,-93875.494,-112600.712
1.284,09-22-2026 21:33:37:559,-158999.805,-130752.654,-153963.107,-156241.108,-152510.691,-161346.425,-154794.637,-136918.293
1.288,09-22-2026 21:33:37:563,-159135.033,-130680.681,-145505.207,-149497.229,-144807.386,-155310.381,-146203.476,-153778.482
1.292,09-22-2026 21:33:37:567,-159085.859,-129940.391,-89375.507,-95546.197,-88573.258,-100231.481,-89189.406,-142754.512
1.296,09-22-2026 21:33:37:571,-158908.833,-129457.146,-56312.806,-61077.483,-54678.715,-65524.228,-55605.776,-116167.291
1.3,09-22-2026 21:33:37:575,-158854.742,-129940.391,-93988.907,-97044.837,-92424.91,-100985.986,-93875.494,-112600.712
1.304,09-22-2026 21:33:37:579,-159005.706,-130770.267,-154144.604,-156435.434,-152239.967,-161070.515,-154520.917,-136945.16
1.308,09-22-2026 21:33:37:583,-159142.856,-130686.939,-145695.555,-149697.59,-144574.659,-155064.512,-145972.046,-153737.936
1.312,09-22-2026 21:33:37:587,-159089.391,-129947.41,-89624.594,-95794.838,-88617.917,-100259.733,-89238.624,-142758.044
1.316,09-22-2026 21:33:37:591,-158912.722,-129468.278,-56596.495,-61356.969,-54890.565,-65725.215,-55820.308,-116277.127
1.32,09-22-2026 21:33:37:595,-158856.932,-129947.41,-94233.166,-97292.137,-92450.57,-101761.234,-93901.645,-112724.809
1.324,09-22-2026 21:33:37:599,-159010.355,-130770.267,-154144.604,-156435.434,-152239.967,-161070.515,-154520.917,-136945.16
1.328,09-22-2026 21:33:37:603,-159145.18,-130697.355,-145695.555,-149697.59,-144574.659,-155064.512,-145972.046,-153737.936
1.332,09-22-2026 21:33:37:607,-159094.04,-129957.826,-89624.594,-95794.838,-88617.917,-100259.733,-89238.624,-142758.044
1.336,09-22-2026 21:33:37:611,-158915.047,-129478.694,-56596.495,-61356.969,-54890.565,-65725.215,-55820.308,-116277.127
1.34,09-22-2026 21:33:37:615,-158861.582,-129957.826,-94233.166,-97292.137,-92450.57,-101761.234,-93901.645,-112724.809
1.344,09-22-2026 21:33:37:619,-159012.679,-130780.683,-154144.604,-156435.434,-152239.967,-161070.515,-154520.917,-136945.16
1.348,09-22-2026 21:33:37:623,-159147.505,-130707.771,-145695.555,-149697.59,-144574.659,-154313.762,-145972.046,-153737.936
1.352,09-22-2026 21:33:37:627,-159096.364,-129957.826,-89624.594,-95794.838,-88617.917,-100259.733,-89238.624,-142435.106
1.356,09-22-2026 21:33:37:631,-158915.047,-129478.694,-56596.495,-61356.969,-54890.565,-65725.215,-55820.308,-116277.127
1.36,09-22-2026 21:33:37:635,-158859.257,-129957.826,-94233.166,-97292.137,-92450.57,-101761.234,-93901.645,-112724.809
1.364,09-22-2026 21:33:37:639,-159010.355,-130791.099,-154144.604,-156435.434,-152239.967,-161070.515,-154520.917,-136945.16
1.368,09-22-2026 21:33:37:643,-159147.505,-130707.771,-145695.555,-149697.59,-144574.659,-155064.512,-145972.046,-153737.936
1.372,09-22-2026 21:33:37:647,-159096.364,-129968.241,-89624.594,-95794.838,-88617.917,-100259.733,-89238.624,-142435.106
1.376,09-22-2026 21:33:37:651,-158917.372,-129489.109,-56596.495,-61356.969,-54890.565,-65725.215,-55820.308,-116277.127
1.38,09-22-2026 21:33:37:655,-158861.582,-129968.241,-94233.166,-97292.137,-91684.039,-101010.484,-93901.645,-112724.809
1.384,09-22-2026 21:33:37:659,-159015.004,-130791.099,-154144.604,-156435.434,-152239.967,-161070.515,-154520.917,-136945.16
1.388,09-22-2026 21:33:37:663,-159149.83,-130718.187,-145695.555,-149697.59,-144574.659,-155064.512,-145972.046,-153737.936
1.392,09-22-2026 21:33:37:667,-159098.689,-129978.657,-89624.594,-95794.838,-88617.917,-100259.733,-89238.624,-142435.106
1.396,09-22-2026 21:33:37:671,-158919.696,-129489.109,-56596.495,-61356.969,-54890.565,-65725.215,-55820.308,-116277.127
1.4,09-22-2026 21:33:37:675,-158866.231,-129978.657,-95001.262,-97292.137,-92450.57,-101761.234,-94678.816,-112724.809
1.404,09-22-2026 21:33:37:679,-159017.686,-130797.983,-154418.278,-156709.913,-152453.068,-161269.49,-154704.425,-137110.518
1.408,09-22-2026 21:33:37:683,-159152.869,-130725.697,-145933.824,-149942.297,-144028.115,-154518.369,-145388.576,-153863.776
1.412,09-22-2026 21:33:37:687,-159099.762,-129971.862,-89627.902,-95049.407,-88117.059,-100509.402,-88717.158,-142587.545
1.416,09-22-2026 21:33:37:691,-158921.127,-129496.843,-56461.401,-61211.325,-55183.149,-66003.673,-56111.685,-116491.123
1.42,09-22-2026 21:33:37:695,-158868.019,-129971.862,-94255.786,-97305.28,-92712.488,-102009.651,-94151.404,-112947.165
1.424,09-22-2026 21:33:37:699,-159020.1,-130797.983,-154418.278,-156709.913,-152453.068,-161269.49,-154704.425,-137110.518
1.428,09-22-2026 21:33:37:703,-159157.697,-130725.697,-145933.824,-149942.297,-144028.115,-154518.369,-145388.576,-153863.776
1.432,09-22-2026 21:33:37:707,-159107.004,-129971.862,-89627.902,-95049.407,-88882.964,-100509.402,-88717.158,-142587.545
1.436,09-22-2026 21:33:37:711,-158928.369,-129486.517,-56461.401,-61211.325,-55183.149,-66003.673,-56111.685,-116491.123
1.44,09-22-2026 21:33:37:715,-158875.261,-129982.189,-94255.786,-97305.28,-92712.488,-102009.651,-94927.725,-112947.165
1.444,09-22-2026 21:33:37:719,-159027.342,-130797.983,-154418.278,-156709.913,-152453.068,-161269.49,-154704.425,-137432.696
1.448,09-22-2026 21:33:37:723,-159167.353,-130725.697,-145933.824,-149942.297,-144028.115,-154518.369,-145388.576,-153863.776
1.452,09-22-2026 21:33:37:727,-159114.246,-129971.862,-89627.902,-95049.407,-88882.964,-100509.402,-89493.479,-142587.545
1.456,09-22-2026 21:33:37:731,-158935.611,-129486.517,-56461.401,-61211.325,-55183.149,-66003.673,-56111.685,-116491.123
1.46,09-22-2026 21:33:37:735,-158880.089,-129971.862,-94255.786,-97305.28,-92712.488,-102009.651,-94927.725,-112947.165
1.464,09-22-2026 21:33:37:739,-159034.584,-130797.983,-154418.278,-156709.913,-152453.068,-161269.49,-154704.425,-137432.696
1.468,09-22-2026 21:33:37:743,-159172.181,-130715.371,-145933.824,-149942.297,-144028.115,-154518.369,-145388.576,-153863.776
1.472,09-22-2026 21:33:37:747,-159121.488,-129971.862,-89627.902,-95049.407,-88882.964,-100509.402,-88717.158,-142587.545
1.476,09-22-2026 21:33:37:751,-158942.852,-129486.517,-56461.401,-61211.325,-55183.149,-66003.673,-56111.685,-116491.123
1.48,09-22-2026 21:33:37:755,-158887.331,-129971.862,-94255.786,-97305.28,-92712.488,-102009.651,-94151.404,-112947.165
1.484,09-22-2026 21:33:37:759,-159039.412,-130797.983,-154418.278,-156709.913,-152453.068,-161269.49,-154704.425,-137432.696
1.488,09-22-2026 21:33:37:763,-159174.595,-130715.371,-145933.824,-149942.297,-144794.019,-155268.494,-146164.897,-153863.776
1.492,09-22-2026 21:33:37:767,-159121.488,-129961.536,-89627.902,-95049.407,-88882.964,-100509.402,-89493.479,-142909.723
1.496,09-22-2026 21:33:37:771,-158945.266,-129486.517,-56461.401,-61211.325,-55183.149,-66003.673,-56111.685,-116491.123
1.5,09-22-2026 21:33:37:775,-158887.331,-129971.862,-94255.786,-97305.28,-92712.488,-102009.651,-94927.725,-112947.165
1.504,09-22-2026 21:33:37:779,-159038.339,-130789.623,-154460.031,-156764.362,-152729.649,-161544.64,-154976.893,-137508.245
1.508,09-22-2026 21:33:37:783,-159173.388,-130705.581,-145962.792,-149984.273,-144270.273,-154764.149,-145622.42,-153996.322
1.512,09-22-2026 21:33:37:787,-159121.264,-129959.703,-89572.023,-94990.22,-88130.783,-100520.22,-88716.041,-142680.975
1.516,09-22-2026 21:33:37:791,-158945.937,-129486.964,-56355.543,-61089.776,-55062.315,-65864.377,-55975.384,-116494.029
1.52,09-22-2026 21:33:37:795,-158891.443,-129970.208,-94979.357,-97250.25,-92744.987,-102026.996,-94952.356,-112937.777
1.524,09-22-2026 21:33:37:799,-159045.447,-130800.129,-154460.031,-156764.362,-152729.649,-161544.64,-154976.893,-137508.245
1.528,09-22-2026 21:33:37:803,-159182.866,-130716.086,-145962.792,-149984.273,-144270.273,-154764.149,-145622.42,-153996.322
1.532,09-22-2026 21:33:37:807,-159130.741,-129970.208,-88799.547,-94990.22,-88130.783,-100520.22,-88716.041,-142680.975
1.536,09-22-2026 21:33:37:811,-158953.045,-129486.964,-56355.543,-61089.776,-55062.315,-65864.377,-55975.384,-116494.029
1.54,09-22-2026 21:33:37:815,-158898.551,-129980.714,-94206.881,-97250.25,-92744.987,-102026.996,-94952.356,-112937.777
1.544,09-22-2026 21:33:37:819,-159047.816,-130800.129,-154460.031,-156764.362,-152729.649,-161544.64,-154976.893,-137508.245
1.548,09-22-2026 21:33:37:823,-159185.235,-130726.591,-145962.792,-149984.273,-144270.273,-154764.149,-145622.42,-153996.322
1.552,09-22-2026 21:33:37:827,-159135.48,-129970.208,-89572.023,-94990.22,-88130.783,-99766.833,-88716.041,-142680.975
1.556,09-22-2026 21:33:37:831,-158960.153,-129507.974,-56355.543,-61089.776,-55062.315,-65864.377,-55975.384,-116494.029
1.56,09-22-2026 21:33:37:835,-158903.29,-129980.714,-94206.881,-96496.906,-92744.987,-102026.996,-94952.356,-112937.777
1.564,09-22-2026 21:33:37:839,-159050.186,-130810.634,-154460.031,-156764.362,-152729.649,-161544.64,-154976.893,-137508.245
1.568,09-22-2026 21:33:37:843,-159185.235,-130737.097,-145962.792,-149984.273,-144270.273,-154764.149,-145622.42,-153996.322
1.572,09-22-2026 21:33:37:847,-159135.48,-129991.219,-89572.023,-94990.22,-88130.783,-99766.833,-88716.041,-142680.975
1.576,09-22-2026 21:33:37:851,-158957.783,-129518.48,-56355.543,-61089.776,-55062.315,-65864.377,-55975.384,-116170.733
1.58,09-22-2026 21:33:37:855,-158903.29,-130001.724,-94206.881,-97250.25,-92744.987,-102026.996,-94172.817,-112937.777
1.584,09-22-2026 21:33:37:859,-159052.555,-130821.139,-154460.031,-156764.362,-152729.649,-161544.64,-154976.893,-137184.949
1.588,09-22-2026 21:33:37:863,-159189.973,-130758.107,-145962.792,-149984.273,-144270.273,-154764.149,-145622.42,-153996.322
1.592,09-22-2026 21:33:37:867,-159142.588,-130001.724,-89572.023,-94990.22,-88130.783,-99766.833,-88716.041,-142680.975
1.596,09-22-2026 21:33:37:871,-158967.261,-129539.49,-56355.543,-61089.776,-55062.315,-65864.377,-55975.384,-116170.733
1.6,09-22-2026 21:33:37:875,-158912.767,-130012.23,-94206.881,-96496.906,-92744.987,-102026.996,-94952.356,-112937.777
1.604,09-22-2026 21:33:37:879,-159062.211,-130849.928,-154755.074,-157058.153,-152773.86,-161597.435,-155020.032,-137457.193
1.608,09-22-2026 21:33:37:883,-159199.898,-130775.765,-146264.72,-150283.295,-144300.716,-154804.874,-145651.075,-154006.827
1.612,09-22-2026 21:33:37:887,-159152.333,-130023.54,-89919.637,-95331.665,-88069.852,-99709.657,-88656.585,-142649.235
1.616,09-22-2026 21:33:37:891,-158977.095,-129557.372,-56730.069,-61457.373,-54947.562,-65746.852,-55865.235,-116364.523
1.62,09-22-2026 21:33:37:895,-158924.524,-130044.729,-94550.74,-97589.951,-92691.567,-101973.844,-94902.557,-112794.994
1.624,09-22-2026 21:33:37:899,-159074.728,-130871.118,-154755.074,-157058.153,-152773.86,-161597.435,-155020.032,-137457.193
1.628,09-22-2026 21:33:37:903,-159212.415,-130796.955,-146264.72,-150283.295,-144300.716,-154804.874,-145651.075,-154006.827
1.632,09-22-2026 21:33:37:907,-159162.347,-130044.729,-89919.637,-95331.665,-88069.852,-99709.657,-88656.585,-142649.235
1.636,09-22-2026 21:33:37:911,-158989.612,-129578.561,-56730.069,-61457.373,-54947.562,-65746.852,-55865.235,-116040.02
1.64,09-22-2026 21:33:37:915,-158934.538,-130065.919,-94550.74,-97589.951,-92691.567,-101973.844,-94902.557,-112794.994
1.644,09-22-2026 21:33:37:919,-159084.741,-130881.713,-154755.074,-157058.153,-152773.86,-161597.435,-155020.032,-137457.193
1.648,09-22-2026 21:33:37:923,-159219.925,-130807.549,-146264.72,-150283.295,-144300.716,-154804.874,-145651.075,-154006.827
1.652,09-22-2026 21:33:37:927,-159172.36,-130055.324,-89919.637,-95331.665,-88069.852,-99709.657,-88656.585,-142649.235
1.656,09-22-2026 21:33:37:931,-158994.619,-129589.156,-56730.069,-61457.373,-54947.562,-65746.852,-55865.235,-116364.523
1.66,09-22-2026 21:33:37:935,-158939.544,-130076.513,-94550.74,-97589.951,-91921.281,-101219.115,-94121.81,-112794.994
1.664,09-22-2026 21:33:37:939,-159089.748,-130892.307,-154755.074,-157058.153,-152773.86,-161597.435,-155020.032,-137132.691
1.668,09-22-2026 21:33:37:943,-159227.435,-130818.144,-146264.72,-150283.295,-144300.716,-154804.874,-145651.075,-154006.827
1.672,09-22-2026 21:33:37:947,-159179.87,-130076.513,-89919.637,-95331.665,-88069.852,-99709.657,-88656.585,-142649.235
1.676,09-22-2026 21:33:37:951,-159004.633,-129599.751,-56730.069,-61457.373,-54947.562,-65746.852,-55865.235,-116364.523
1.68,09-22-2026 21:33:37:955,-158952.061,-130087.108,-94550.74,-97589.951,-92691.567,-101973.844,-94902.557,-112794.994
1.684,09-22-2026 21:33:37:959,-159102.265,-130902.902,-154755.074,-157058.153,-152773.86,-161597.435,-155020.032,-137132.691
1.688,09-22-2026 21:33:37:963,-159239.952,-130828.739,-146264.72,-150283.295,-145071.002,-155559.603,-146431.821,-154006.827
1.692,09-22-2026 21:33:37:967,-159189.884,-130076.513,-89147.787,-95331.665,-88069.852,-99709.657,-88656.585,-142649.235
1.696,09-22-2026 21:33:37:971,-159014.646,-129610.345,-56730.069,-61457.373,-54947.562,-65746.852,-55865.235,-116364.523
1.7,09-22-2026 21:33:37:975,-158959.572,-130087.108,-94550.74,-96837.189,-92691.567,-101219.115,-94121.81,-112794.994
1.704,09-22-2026 21:33:37:979,-159108.479,-130914.257,-154481.042,-156841.341,-153060.902,-161890.332,-155320.126,-137086.959
1.708,09-22-2026 21:33:37:983,-159246.076,-130829.499,-145959.708,-150037.917,-144595.134,-155104.209,-145958.679,-154290.337
1.712,09-22-2026 21:33:37:987,-159197.796,-130087.868,-89409.034,-95610.526,-88413.219,-100061.205,-89009.877,-142929.616
1.716,09-22-2026 21:33:37:991,-159021.575,-129621.7,-56873.03,-61593.406,-55319.763,-66130.586,-56244.812,-116637.661
1.72,09-22-2026 21:33:37:995,-158970.882,-130109.057,-94831.701,-97122.398,-93030.911,-102323.246,-94470.721,-113067.149
1.724,09-22-2026 21:33:37:999,-159118.135,-130924.851,-154481.042,-156841.341,-153060.902,-161890.332,-155320.126,-137411.551
1.728,09-22-2026 21:33:38:003,-159255.732,-130850.688,-145959.708,-150037.917,-144595.134,-155104.209,-145958.679,-154290.337
1.732,09-22-2026 21:33:38:007,-159205.038,-130098.463,-89409.034,-94854.59,-88413.219,-100061.205,-89009.877,-142929.616
1.736,09-22-2026 21:33:38:011,-159031.231,-129632.295,-56873.03,-61593.406,-55319.763,-66130.586,-56244.812,-116637.661
1.74,09-22-2026 21:33:38:015,-158978.124,-130119.652,-94831.701,-97878.334,-93030.911,-102323.246,-95250.841,-113391.741
1.744,09-22-2026 21:33:38:019,-159127.791,-130935.446,-155255.709,-157597.277,-153060.902,-161890.332,-155320.126,-137736.143
1.748,09-22-2026 21:33:38:023,-159262.974,-130850.688,-145959.708,-150037.917,-144595.134,-155104.209,-145958.679,-154290.337
1.752,09-22-2026 21:33:38:027,-159209.866,-130109.057,-89409.034,-94854.59,-88413.219,-100061.205,-89009.877,-142929.616
1.756,09-22-2026 21:33:38:031,-159031.231,-129642.889,-56873.03,-61593.406,-55319.763,-66130.586,-56244.812,-116637.661
1.76,09-22-2026 21:33:38:035,-158982.952,-130140.842,-95606.368,-98634.27,-93030.911,-102323.246,-95250.841,-113067.149
1.764,09-22-2026 21:33:38:039,-159135.033,-130956.636,-155255.709,-157597.277,-153060.902,-161890.332,-155320.126,-137411.551
1.768,09-22-2026 21:33:38:043,-159270.216,-130861.283,-145959.708,-150037.917,-144595.134,-155104.209,-145958.679,-154290.337
1.772,09-22-2026 21:33:38:047,-159217.108,-130119.652,-89409.034,-94854.59,-88413.219,-100061.205,-89009.877,-142929.616
1.776,09-22-2026 21:33:38:051,-159040.887,-129664.079,-56873.03,-61593.406,-55319.763,-66130.586,-56244.812,-116637.661
1.78,09-22-2026 21:33:38:055,-158990.193,-130162.031,-95606.368,-98634.27,-93030.911,-102323.246,-95250.841,-113067.149
1.784,09-22-2026 21:33:38:059,-159144.689,-130967.23,-155255.709,-157597.277,-153060.902,-161890.332,-155320.126,-137411.551
1.788,09-22-2026 21:33:38:063,-159277.458,-130882.473,-145959.708,-150037.917,-144595.134,-155104.209,-145958.679,-154290.337
1.792,09-22-2026 21:33:38:067,-159226.764,-130140.842,-89409.034,-94854.59,-88413.219,-100061.205,-89009.877,-142929.616
1.796,09-22-2026 21:33:38:071,-159050.543,-129685.268,-56873.03,-61593.406,-55319.763,-66130.586,-56244.812,-116637.661
1.8,09-22-2026 21:33:38:075,-158999.849,-130172.626,-95606.368,-98634.27,-92261.296,-101569.233,-94470.721,-113067.149
1.804,09-22-2026 21:33:38:079,-159152.914,-130988.196,-155055.795,-157402.504,-152789.373,-161670.838,-155035.768,-137201.802
1.808,09-22-2026 21:33:38:083,-159287.427,-130905.584,-145769.45,-149848.509,-145064.61,-154856.149,-146423.953,-154048.044
1.812,09-22-2026 21:33:38:087,-159230.43,-130162.076,-89277.517,-94704.341,-88673.841,-100338.635,-88489.93,-142709.228
1.816,09-22-2026 21:33:38:091,-159057.159,-129707.71,-56775.308,-61466.761,-55457.36,-66265.189,-56391.35,-116467.967
1.82,09-22-2026 21:33:38:095,-159007.002,-130203.382,-95468.413,-98481.339,-93308.698,-101853.01,-94753.068,-113228.305
1.824,09-22-2026 21:33:38:099,-159159.754,-131008.849,-155055.795,-157402.504,-152789.373,-161670.838,-155035.768,-137525.769
1.828,09-22-2026 21:33:38:103,-159291.987,-130915.911,-145769.45,-149848.509,-145064.61,-154856.149,-146423.953,-154372.01
1.832,09-22-2026 21:33:38:107,-159237.27,-130172.402,-89277.517,-94704.341,-87901.364,-100338.635,-88489.93,-142709.228
1.836,09-22-2026 21:33:38:111,-159057.159,-129718.036,-56775.308,-61466.761,-55457.36,-66265.189,-56391.35,-116467.967
1.84,09-22-2026 21:33:38:115,-159007.002,-130213.708,-95468.413,-98481.339,-93308.698,-102610.198,-95535.96,-113228.305
1.844,09-22-2026 21:33:38:119,-159159.754,-131019.176,-155055.795,-157402.504,-153561.849,-162428.026,-155818.66,-137525.769
1.848,09-22-2026 21:33:38:123,-159291.987,-130926.237,-145769.45,-149848.509,-144292.133,-154856.149,-145641.061,-154372.01
1.852,09-22-2026 21:33:38:127,-159237.27,-130182.729,-89277.517,-94704.341,-87901.364,-100338.635,-88489.93,-143033.194
1.856,09-22-2026 21:33:38:131,-159057.159,-129728.363,-56775.308,-61466.761,-55457.36,-66265.189,-56391.35,-116791.933
1.86,09-22-2026 21:33:38:135,-159007.002,-130213.708,-95468.413,-98481.339,-94081.175,-103367.386,-96318.852,-113552.271
1.864,09-22-2026 21:33:38:139,-159159.754,-131019.176,-155055.795,-157402.504,-153561.849,-162428.026,-155818.66,-138173.701
1.868,09-22-2026 21:33:38:143,-159291.987,-130926.237,-145769.45,-149848.509,-144292.133,-154856.149,-145641.061,-154372.01
1.872,09-22-2026 21:33:38:147,-159237.27,-130182.729,-89277.517,-94704.341,-87901.364,-99581.447,-88489.93,-142709.228
1.876,09-22-2026 21:33:38:151,-159059.439,-129728.363,-56775.308,-61466.761,-55457.36,-66265.189,-56391.35,-116791.933
1.88,09-22-2026 21:33:38:155,-159007.002,-130213.708,-95468.413,-98481.339,-94081.175,-103367.386,-96318.852,-113552.271
1.884,09-22-2026 21:33:38:159,-159157.474,-131019.176,-155055.795,-157402.504,-153561.849,-162428.026,-155818.66,-138173.701
1.888,09-22-2026 21:33:38:163,-159287.427,-130926.237,-144995.587,-149093.109,-144292.133,-154856.149,-145641.061,-154372.01
1.892,09-22-2026 21:33:38:167,-159232.71,-130172.402,-88503.654,-94704.341,-87901.364,-99581.447,-88489.93,-143033.194
1.896,09-22-2026 21:33:38:171,-159052.6,-129718.036,-56775.308,-61466.761,-55457.36,-66265.189,-56391.35,-116791.933
1.9,09-22-2026 21:33:38:175,-159002.442,-130203.382,-95468.413,-98481.339,-94081.175,-103367.386,-95535.96,-113552.271
1.904,09-22-2026 21:33:38:179,-159154.121,-131016.583,-154744.122,-157092.396,-153358.895,-162230.258,-155615.572,-138148.891
1.908,09-22-2026 21:33:38:183,-159286.891,-130923.644,-144701.349,-149550.918,-144098.299,-154664.639,-145449.015,-154300.261
1.912,09-22-2026 21:33:38:187,-159231.369,-130180.136,-88307.317,-94498.124,-87763.007,-99435.624,-88359.888,-142994.302
1.916,09-22-2026 21:33:38:191,-159055.148,-129715.443,-56633.956,-61315.618,-55350.921,-66146.903,-56296.132,-116829.081
1.92,09-22-2026 21:33:38:195,-159002.04,-130211.116,-96032.527,-98268.863,-93936.738,-103218.434,-96180.316,-113598.807
1.924,09-22-2026 21:33:38:199,-159154.121,-131016.583,-154744.122,-157092.396,-153358.895,-162230.258,-155615.572,-138148.891
1.928,09-22-2026 21:33:38:203,-159286.891,-130923.644,-144701.349,-149550.918,-144098.299,-154664.639,-145449.015,-154300.261
1.932,09-22-2026 21:33:38:207,-159228.955,-130180.136,-88307.317,-94498.124,-87763.007,-100192.186,-88359.888,-142994.302
1.936,09-22-2026 21:33:38:211,-159047.906,-129715.443,-56633.956,-61315.618,-55350.921,-66146.903,-56296.132,-116829.081
1.94,09-22-2026 21:33:38:215,-158997.212,-130211.116,-95260.006,-98268.863,-93936.738,-103218.434,-96180.316,-113598.807
1.944,09-22-2026 21:33:38:219,-159146.879,-131016.583,-154744.122,-157092.396,-153358.895,-162230.258,-155615.572,-138148.891
1.948,09-22-2026 21:33:38:223,-159279.649,-130923.644,-144701.349,-149550.918,-144098.299,-154664.639,-145449.015,-154300.261
1.952,09-22-2026 21:33:38:227,-159221.713,-130180.136,-88307.317,-94498.124,-87763.007,-99435.624,-88359.888,-142671.274
1.956,09-22-2026 21:33:38:231,-159043.078,-129715.443,-56633.956,-61315.618,-55350.921,-66146.903,-56296.132,-116506.054
1.96,09-22-2026 21:33:38:235,-158989.97,-130211.116,-95260.006,-98268.863,-93936.738,-103218.434,-96180.316,-113598.807
1.964,09-22-2026 21:33:38:239,-159144.465,-131016.583,-154744.122,-157092.396,-153358.895,-162230.258,-155615.572,-138148.891
1.968,09-22-2026 21:33:38:243,-159277.235,-130923.644,-144701.349,-148796.77,-144098.299,-154664.639,-145449.015,-154300.261
1.972,09-22-2026 21:33:38:247,-159219.299,-130180.136,-88307.317,-94498.124,-87763.007,-99435.624,-88359.888,-142671.274
1.976,09-22-2026 21:33:38:251,-159040.664,-129715.443,-56633.956,-61315.618,-55350.921,-66146.903,-56296.132,-116506.054
1.98,09-22-2026 21:33:38:255,-158989.97,-130211.116,-95260.006,-98268.863,-93936.738,-103218.434,-96180.316,-113275.78
1.984,09-22-2026 21:33:38:259,-159139.637,-131016.583,-154744.122,-157092.396,-153358.895,-162230.258,-155615.572,-137825.863
1.988,09-22-2026 21:33:38:263,-159272.407,-130923.644,-144701.349,-149550.918,-143326.583,-153908.077,-144666.972,-153977.234
1.992,09-22-2026 21:33:38:267,-159212.057,-130169.809,-88307.317,-93743.976,-87763.007,-99435.624,-88359.888,-142348.247
1.996,09-22-2026 21:33:38:271,-159033.422,-129705.117,-56633.956,-61315.618,-55350.921,-66146.903,-56296.132,-116183.027
2,09-22-2026 21:33:38:275,-158980.314,-130190.462,-95260.006,-97514.715,-93936.738,-102461.872,-95398.274,-113275.78
2.004,09-22-2026 21:33:38:279,-159128.417,-131005.854,-154830.579,-157153.774,-153044.048,-161920.686,-155294.824,-137806.149
2.008,09-22-2026 21:33:38:283,-159262.035,-130911.306,-144736.084,-148815.858,-143799.546,-154367.585,-145146.864,-153901.64
2.012,09-22-2026 21:33:38:287,-159207.497,-130165.429,-88051.613,-94240.408,-87562.154,-99229.944,-88162.164,-142312.886
2.016,09-22-2026 21:33:38:291,-159030.248,-129713.7,-56215.129,-60888.745,-55206.395,-65996.297,-56157.059,-116238.191
2.02,09-22-2026 21:33:38:295,-158978.436,-130207.45,-95816.609,-98788.363,-93725.156,-103006.494,-95968.288,-113341.002
2.024,09-22-2026 21:33:38:299,-159128.417,-131005.854,-154830.579,-157153.774,-153044.048,-161920.686,-155294.824,-137806.149
2.028,09-22-2026 21:33:38:303,-159256.582,-130911.306,-144736.084,-148815.858,-143799.546,-154367.585,-145146.864,-153901.64
2.032,09-22-2026 21:33:38:307,-159199.316,-130154.923,-88051.613,-93482.416,-87562.154,-99229.944,-88162.164,-142312.886
2.036,09-22-2026 21:33:38:311,-159016.613,-129703.194,-56215.129,-60888.745,-55206.395,-65996.297,-56157.059,-116238.191
2.04,09-22-2026 21:33:38:315,-158962.075,-130196.944,-95816.609,-98788.363,-93725.156,-103006.494,-95968.288,-113019.092
2.044,09-22-2026 21:33:38:319,-159109.328,-130995.349,-154830.579,-157153.774,-153044.048,-161920.686,-155294.824,-137806.149
2.048,09-22-2026 21:33:38:323,-159240.22,-130900.801,-144736.084,-148815.858,-143799.546,-154367.585,-145146.864,-153901.64
2.052,09-22-2026 21:33:38:327,-159180.228,-130144.418,-88051.613,-93482.416,-87562.154,-99229.944,-88162.164,-142312.886
2.056,09-22-2026 21:33:38:331,-158997.525,-129692.689,-56215.129,-60888.745,-55206.395,-65996.297,-56157.059,-116238.191
2.06,09-22-2026 21:33:38:335,-158942.987,-130186.439,-95816.609,-98788.363,-93725.156,-103006.494,-95968.288,-113019.092
2.064,09-22-2026 21:33:38:339,-159095.694,-130984.843,-154830.579,-157153.774,-153044.048,-161920.686,-155294.824,-137806.149
2.068,09-22-2026 21:33:38:343,-159223.859,-130879.79,-144736.084,-148815.858,-143799.546,-154367.585,-145146.864,-153901.64
2.072,09-22-2026 21:33:38:347,-159166.593,-130133.913,-88051.613,-93482.416,-87562.154,-99229.944,-87381.552,-142312.886
2.076,09-22-2026 21:33:38:351,-158986.617,-129682.184,-56215.129,-60888.745,-55206.395,-65996.297,-56157.059,-115916.281
2.08,09-22-2026 21:33:38:355,-158932.079,-130175.934,-95816.609,-98788.363,-93725.156,-103006.494,-95968.288,-113019.092
2.084,09-22-2026 21:33:38:359,-159082.059,-130974.338,-154830.579,-157153.774,-153044.048,-161920.686,-155294.824,-137806.149
2.088,09-22-2026 21:33:38:363,-159212.951,-130879.79,-144736.084,-148815.858,-143799.546,-154367.585,-145146.864,-153901.64
2.092,09-22-2026 21:33:38:367,-159150.232,-130123.407,-87275.113,-93482.416,-86791.779,-98474.634,-87381.552,-141990.977
2.096,09-22-2026 21:33:38:371,-158970.256,-129671.679,-56215.129,-60888.745,-55206.395,-65996.297,-56157.059,-115916.281
2.1,09-22-2026 21:33:38:375,-158915.717,-130154.923,-95040.109,-98030.37,-93725.156,-102251.184,-95187.675,-113019.092
2.104,09-22-2026 21:33:38:379,-159066.86,-130959.631,-154795.71,-157124.359,-153129.879,-162009.065,-155378.688,-137600.2
2.108,09-22-2026 21:33:38:383,-159195.025,-130866.29,-144700.053,-148784.968,-143838.169,-154414.836,-145179.587,-153773.922
2.112,09-22-2026 21:33:38:387,-159137.76,-130109.192,-87232.466,-93441.736,-87313.603,-98976.967,-87907.712,-142128.842
2.116,09-22-2026 21:33:38:391,-158957.783,-129663.23,-56168.906,-60842.298,-54792.619,-65562.36,-55741.317,-115927.412
2.12,09-22-2026 21:33:38:395,-158905.972,-130161.048,-95774.945,-98748.621,-94282.385,-103533.504,-95753.175,-113016.142
2.124,09-22-2026 21:33:38:399,-159055.952,-130959.631,-154795.71,-157124.359,-153129.879,-162009.065,-155378.688,-137923.674
2.128,09-22-2026 21:33:38:403,-159184.117,-130855.919,-144700.053,-148784.968,-143063.86,-153655.413,-144395.041,-153773.922
2.132,09-22-2026 21:33:38:407,-159124.125,-130098.82,-87232.466,-93441.736,-86539.294,-98976.967,-87123.166,-142128.842
2.136,09-22-2026 21:33:38:411,-158944.149,-129652.858,-56168.906,-60842.298,-54792.619,-65562.36,-55741.317,-115927.412
2.14,09-22-2026 21:33:38:415,-158889.611,-130150.676,-95774.945,-97990.495,-94282.385,-103533.504,-95753.175,-113016.142
2.144,09-22-2026 21:33:38:419,-159039.591,-130959.631,-154795.71,-157124.359,-153129.879,-162009.065,-155378.688,-137923.674
2.148,09-22-2026 21:33:38:423,-159167.756,-130855.919,-144700.053,-148784.968,-143063.86,-153655.413,-144395.041,-153773.922
2.152,09-22-2026 21:33:38:427,-159107.764,-130098.82,-87232.466,-93441.736,-86539.294,-98217.544,-87123.166,-141805.368
2.156,09-22-2026 21:33:38:431,-158927.787,-129652.858,-56168.906,-60842.298,-54792.619,-65562.36,-55741.317,-115927.412
2.16,09-22-2026 21:33:38:435,-158875.976,-130150.676,-95774.945,-97990.495,-94282.385,-102774.081,-95753.175,-113016.142
2.164,09-22-2026 21:33:38:439,-159025.956,-130949.26,-154795.71,-157124.359,-153129.879,-162009.065,-155378.688,-137923.674
2.168,09-22-2026 21:33:38:443,-159156.848,-130845.547,-144700.053,-148784.968,-143063.86,-153655.413,-144395.041,-153773.922
2.172,09-22-2026 21:33:38:447,-159099.583,-130098.82,-87232.466,-93441.736,-86539.294,-98217.544,-87123.166,-141805.368
2.176,09-22-2026 21:33:38:451,-158916.88,-129642.487,-56168.906,-60842.298,-54792.619,-65562.36,-55741.317,-115603.938
2.18,09-22-2026 21:33:38:455,-158865.068,-130140.305,-95774.945,-98748.621,-94282.385,-102774.081,-95753.175,-112692.668
2.184,09-22-2026 21:33:38:459,-159015.049,-130949.26,-154795.71,-157124.359,-153129.879,-162009.065,-155378.688,-137600.2
2.188,09-22-2026 21:33:38:463,-159145.94,-130845.547,-144700.053,-148784.968,-143063.86,-153655.413,-144395.041,-153773.922
2.192,09-22-2026 21:33:38:467,-159083.221,-130088.449,-87232.466,-93441.736,-86539.294,-98217.544,-87123.166,-141805.368
2.196,09-22-2026 21:33:38:471,-158903.245,-129642.487,-56168.906,-60842.298,-54792.619,-65562.36,-55741.317,-115603.938
2.2,09-22-2026 21:33:38:475,-158848.707,-130129.934,-94998.356,-97990.495,-93508.076,-102774.081,-94968.628,-112692.668
2.204,09-22-2026 21:33:38:479,-158996.854,-130932.138,-154897.142,-157242.242,-153100.375,-161973.347,-155344.356,-137528.808
2.208,09-22-2026 21:33:38:483,-159124.796,-130829.32,-144800.904,-148900.393,-143032.613,-153618.712,-144359.457,-153644.416
2.212,09-22-2026 21:33:38:487,-159067.933,-130078.748,-87330.009,-93540.844,-86498.256,-98174.315,-87081.055,-141718.866
2.216,09-22-2026 21:33:38:491,-158887.867,-129626.349,-56264.661,-60931.794,-54746.083,-65515.288,-55695.63,-115289.27
2.22,09-22-2026 21:33:38:495,-158835.743,-130130.157,-95872.98,-98849.293,-94242.688,-103490.901,-95712.047,-112710.772
2.224,09-22-2026 21:33:38:499,-158985.008,-130932.138,-154897.142,-157242.242,-153100.375,-161973.347,-155344.356,-137851.121
2.228,09-22-2026 21:33:38:503,-159117.688,-130829.32,-144800.904,-148900.393,-143032.613,-153618.712,-144359.457,-153644.416
2.232,09-22-2026 21:33:38:507,-159058.456,-130078.748,-87330.009,-92782.494,-86498.256,-98174.315,-86296.42,-141718.866
2.236,09-22-2026 21:33:38:511,-158880.759,-129626.349,-56264.661,-60931.794,-54746.083,-65515.288,-55695.63,-115289.27
2.24,09-22-2026 21:33:38:515,-158828.635,-130130.157,-95872.98,-98849.293,-94242.688,-102731.389,-95712.047,-112710.772
2.244,09-22-2026 21:33:38:519,-158977.9,-130932.138,-154897.142,-157242.242,-153100.375,-161973.347,-155344.356,-137528.808
2.248,09-22-2026 21:33:38:523,-159108.211,-130819.038,-144024.27,-148900.393,-143032.613,-153618.712,-144359.457,-153644.416
2.252,09-22-2026 21:33:38:527,-159051.348,-130068.467,-87330.009,-92782.494,-86498.256,-98174.315,-87081.055,-141718.866
2.256,09-22-2026 21:33:38:531,-158873.651,-129626.349,-56264.661,-60931.794,-54746.083,-65515.288,-55695.63,-115289.27
2.26,09-22-2026 21:33:38:535,-158826.266,-130130.157,-95872.98,-98849.293,-94242.688,-102731.389,-95712.047,-112710.772
2.264,09-22-2026 21:33:38:539,-158980.269,-130932.138,-154897.142,-157242.242,-153100.375,-161973.347,-155344.356,-137528.808
2.268,09-22-2026 21:33:38:543,-159112.949,-130829.32,-144024.27,-148142.043,-143032.613,-153618.712,-144359.457,-153644.416
2.272,09-22-2026 21:33:38:547,-159056.086,-130068.467,-87330.009,-92782.494,-86498.256,-98174.315,-86296.42,-141718.866
2.276,09-22-2026 21:33:38:551,-158880.759,-129626.349,-56264.661,-60931.794,-54746.083,-65515.288,-55695.63,-115289.27
2.28,09-22-2026 21:33:38:555,-158831.004,-130130.157,-95872.98,-98849.293,-94242.688,-102731.389,-95712.047,-112710.772
2.284,09-22-2026 21:33:38:559,-158982.639,-130932.138,-154897.142,-157242.242,-153100.375,-161973.347,-155344.356,-137528.808
2.288,09-22-2026 21:33:38:563,-159110.58,-130829.32,-144024.27,-148142.043,-143032.613,-153618.712,-144359.457,-153644.416
2.292,09-22-2026 21:33:38:567,-159053.717,-130068.467,-87330.009,-92782.494,-85723.813,-98174.315,-86296.42,-141718.866
2.296,09-22-2026 21:33:38:571,-158873.651,-129626.349,-56264.661,-60931.794,-54746.083,-65515.288,-55695.63,-115289.27
2.3,09-22-2026 21:33:38:575,-158823.897,-130119.876,-95872.98,-98090.943,-93468.245,-102731.389,-95712.047,-112710.772
2.304,09-22-2026 21:33:38:579,-158970.882,-130930.395,-155022.178,-157377.917,-153201.941,-162087.519,-155441.139,-137302.072
2.308,09-22-2026 21:33:38:583,-159101.773,-130827.13,-144124.272,-148253.578,-143133.017,-153730.917,-144456.24,-153692.115
2.312,09-22-2026 21:33:38:587,-159044.508,-130073.295,-87299.477,-92747.178,-85817.601,-98273.468,-86393.203,-141479.926
2.316,09-22-2026 21:33:38:591,-158864.532,-129629.255,-56162.602,-60811.989,-54836.295,-65606.751,-55792.413,-115448.682
2.32,09-22-2026 21:33:38:595,-158809.994,-130124.927,-95862.117,-98830.071,-94337.46,-103591.305,-95808.83,-112877.695
2.324,09-22-2026 21:33:38:599,-158959.974,-130930.395,-155022.178,-157377.917,-153201.941,-162087.519,-155441.139,-137623.446
2.328,09-22-2026 21:33:38:603,-159088.139,-130827.13,-144124.272,-148253.578,-143133.017,-153730.917,-144456.24,-153692.115
2.332,09-22-2026 21:33:38:607,-159028.147,-130073.295,-87299.477,-92747.178,-85817.601,-97513.777,-86393.203,-141479.926
2.336,09-22-2026 21:33:38:611,-158848.171,-129629.255,-56162.602,-60811.989,-54836.295,-65606.751,-55792.413,-115448.682
2.34,09-22-2026 21:33:38:615,-158796.359,-130135.254,-96640.539,-98830.071,-94337.46,-103591.305,-95808.83,-112877.695
2.344,09-22-2026 21:33:38:619,-158946.339,-130940.721,-155022.178,-157377.917,-153201.941,-162087.519,-155441.139,-137944.819
2.348,09-22-2026 21:33:38:623,-159074.504,-130827.13,-144124.272,-148253.578,-143133.017,-153730.917,-144456.24,-153692.115
2.352,09-22-2026 21:33:38:627,-159011.785,-130073.295,-87299.477,-92747.178,-85817.601,-97513.777,-86393.203,-141801.3
2.356,09-22-2026 21:33:38:631,-158831.809,-129629.255,-56162.602,-60811.989,-54836.295,-65606.751,-55792.413,-115448.682
2.36,09-22-2026 21:33:38:635,-158782.725,-130145.58,-96640.539,-98830.071,-94337.46,-103591.305,-96593.466,-112877.695
2.364,09-22-2026 21:33:38:639,-158929.978,-130940.721,-155022.178,-157377.917,-153201.941,-162087.519,-155441.139,-137944.819
2.368,09-22-2026 21:33:38:643,-159060.87,-130837.456,-144124.272,-148253.578,-143133.017,-153730.917,-144456.24,-153692.115
2.372,09-22-2026 21:33:38:647,-159000.878,-130073.295,-86521.055,-92747.178,-85817.601,-97513.777,-86393.203,-141479.926
2.376,09-22-2026 21:33:38:651,-158820.901,-129639.581,-56162.602,-60811.989,-54836.295,-65606.751,-55792.413,-115448.682
2.38,09-22-2026 21:33:38:655,-158769.09,-130145.58,-95862.117,-98830.071,-94337.46,-103591.305,-96593.466,-112877.695
2.384,09-22-2026 21:33:38:659,-158921.797,-130940.721,-155022.178,-157377.917,-153201.941,-162087.519,-155441.139,-137944.819
2.388,09-22-2026 21:33:38:663,-159049.962,-130837.456,-144124.272,-148253.578,-143133.017,-153730.917,-144456.24,-153692.115
2.392,09-22-2026 21:33:38:667,-158989.97,-130083.621,-86521.055,-92747.178,-85817.601,-97513.777,-86393.203,-141479.926
2.396,09-22-2026 21:33:38:671,-158809.994,-129639.581,-56162.602,-60811.989,-54836.295,-65606.751,-55792.413,-115448.682
2.4,09-22-2026 21:33:38:675,-158758.182,-130145.58,-95862.117,-98830.071,-93562.927,-102831.614,-95808.83,-112877.695
2.404,09-22-2026 21:33:38:679,-158908.476,-130947.158,-155108.232,-157471.795,-153328.318,-162219.082,-155570.421,-137570.159
2.408,09-22-2026 21:33:38:683,-159038.429,-130843.893,-144180.911,-148320.633,-143235.566,-153840.843,-144560.488,-153658.945
2.412,09-22-2026 21:33:38:687,-158979.822,-130079.732,-86422.215,-92651.065,-85784.52,-97478.148,-86365.129,-141431.468
2.416,09-22-2026 21:33:38:691,-158801.455,-129646.019,-55981.822,-60621.999,-54729.9,-65488.51,-55694.602,-115367.635
2.42,09-22-2026 21:33:38:695,-158753.041,-130141.691,-95788.49,-98751.84,-94324.54,-102809.754,-95802.214,-112793.429
2.424,09-22-2026 21:33:38:699,-158905.927,-130957.485,-155108.232,-157471.795,-153328.318,-162219.082,-155570.421,-137570.159
2.428,09-22-2026 21:33:38:703,-159033.332,-130843.893,-144180.911,-148320.633,-143235.566,-153840.843,-144560.488,-153658.945
2.432,09-22-2026 21:33:38:707,-158974.726,-130090.058,-86422.215,-92651.065,-85784.52,-97478.148,-86365.129,-141431.468
2.436,09-22-2026 21:33:38:711,-158796.359,-129646.019,-55981.822,-60621.999,-54729.9,-65488.51,-55694.602,-115367.635
2.44,09-22-2026 21:33:38:715,-158747.945,-130162.344,-96569.013,-99514.437,-94324.54,-103571.412,-96588.638,-112793.429
2.444,09-22-2026 21:33:38:719,-158898.283,-130957.485,-155108.232,-157471.795,-153328.318,-162219.082,-155570.421,-137891.935
2.448,09-22-2026 21:33:38:723,-159028.236,-130843.893,-144180.911,-148320.633,-142459.201,-153079.185,-143774.065,-153658.945
2.452,09-22-2026 21:33:38:727,-158967.082,-130090.058,-86422.215,-91888.468,-85784.52,-97478.148,-86365.129,-141431.468
2.456,09-22-2026 21:33:38:731,-158786.167,-129646.019,-55981.822,-60621.999,-54729.9,-65488.51,-55694.602,-115367.635
2.46,09-22-2026 21:33:38:735,-158735.205,-130162.344,-96569.013,-98751.84,-94324.54,-103571.412,-96588.638,-112793.429
2.464,09-22-2026 21:33:38:739,-158888.091,-130957.485,-155108.232,-157471.795,-153328.318,-162219.082,-155570.421,-137891.935
2.468,09-22-2026 21:33:38:743,-159015.496,-130843.893,-144180.911,-148320.633,-142459.201,-153079.185,-143774.065,-153658.945
2.472,09-22-2026 21:33:38:747,-158954.341,-130090.058,-86422.215,-91888.468,-85784.52,-97478.148,-86365.129,-141431.468
2.476,09-22-2026 21:33:38:751,-158773.426,-129646.019,-55981.822,-60621.999,-54729.9,-65488.51,-55694.602,-115367.635
2.48,09-22-2026 21:33:38:755,-158722.464,-130162.344,-95788.49,-98751.84,-94324.54,-103571.412,-96588.638,-112793.429
2.484,09-22-2026 21:33:38:759,-158872.802,-130957.485,-155108.232,-157471.795,-153328.318,-162219.082,-155570.421,-137891.935
2.488,09-22-2026 21:33:38:763,-159002.755,-130843.893,-144180.911,-148320.633,-142459.201,-153079.185,-143774.065,-153658.945
2.492,09-22-2026 21:33:38:767,-158944.149,-130090.058,-86422.215,-91888.468,-85784.52,-97478.148,-86365.129,-141431.468
2.496,09-22-2026 21:33:38:771,-158765.782,-129646.019,-55981.822,-60621.999,-54729.9,-65488.51,-55694.602,-115045.859
2.5,09-22-2026 21:33:38:775,-158717.368,-130162.344,-96569.013,-99514.437,-94324.54,-102809.754,-95802.214,-112793.429
2.504,09-22-2026 21:33:38:779,-158868.555,-130957.127,-155175.734,-157544.661,-153411.153,-162315.015,-155656.297,-137540.834
2.508,09-22-2026 21:33:38:783,-158998.732,-130852.521,-144242.155,-148387.599,-142513.247,-153148.833,-143829.095,-153638.56
2.512,09-22-2026 21:33:38:787,-158940.617,-130088.896,-86450.378,-91919.046,-85688.452,-97387.892,-86270.045,-141404.288
2.516,09-22-2026 21:33:38:791,-158761.625,-129649.55,-55992.55,-60632.415,-54551.578,-65306.254,-55519.319,-115325.971
2.52,09-22-2026 21:33:38:795,-158710.484,-130162.12,-95822.018,-98786.843,-94251.093,-103498.68,-96520.286,-112750.335
2.524,09-22-2026 21:33:38:799,-158859.257,-130957.127,-155175.734,-157544.661,-153411.153,-162315.015,-155656.297,-137862.788
2.528,09-22-2026 21:33:38:803,-158989.434,-130842.061,-144242.155,-148387.599,-142513.247,-153148.833,-143829.095,-153638.56
2.532,09-22-2026 21:33:38:807,-158931.319,-130078.436,-86450.378,-91919.046,-85688.452,-97387.892,-86270.045,-141404.288
2.536,09-22-2026 21:33:38:811,-158752.326,-129639.09,-55992.55,-60632.415,-54551.578,-65306.254,-55519.319,-115325.971
2.54,09-22-2026 21:33:38:815,-158703.51,-130151.66,-96602.988,-98786.843,-95029.514,-103498.68,-96520.286,-112750.335
2.544,09-22-2026 21:33:38:819,-158854.608,-130946.667,-155175.734,-157544.661,-153411.153,-162315.015,-155656.297,-137862.788
2.548,09-22-2026 21:33:38:823,-158987.109,-130831.6,-144242.155,-148387.599,-142513.247,-153148.833,-143829.095,-153638.56
2.552,09-22-2026 21:33:38:827,-158928.994,-130067.975,-86450.378,-91919.046,-84910.03,-97387.892,-85481.564,-141404.288
2.556,09-22-2026 21:33:38:831,-158752.326,-129639.09,-55992.55,-60632.415,-54551.578,-65306.254,-55519.319,-115004.017
2.56,09-22-2026 21:33:38:835,-158705.835,-130141.199,-96602.988,-98786.843,-94251.093,-103498.68,-96520.286,-112750.335
2.564,09-22-2026 21:33:38:839,-158859.257,-130936.206,-155175.734,-157544.661,-153411.153,-162315.015,-155656.297,-137862.788
2.568,09-22-2026 21:33:38:843,-158991.758,-130821.139,-143461.185,-147624.51,-142513.247,-153148.833,-143829.095,-153638.56
2.572,09-22-2026 21:33:38:847,-158933.644,-130067.975,-86450.378,-91919.046,-84910.03,-97387.892,-85481.564,-141404.288
2.576,09-22-2026 21:33:38:851,-158759.3,-129628.629,-55992.55,-60632.415,-54551.578,-65306.254,-55519.319,-115004.017
2.58,09-22-2026 21:33:38:855,-158710.484,-130141.199,-96602.988,-98786.843,-94251.093,-103498.68,-96520.286,-112750.335
2.584,09-22-2026 21:33:38:859,-158863.906,-130936.206,-155175.734,-157544.661,-153411.153,-162315.015,-155656.297,-137862.788
2.588,09-22-2026 21:33:38:863,-158994.083,-130821.139,-143461.185,-148387.599,-142513.247,-153148.833,-143829.095,-153638.56
2.592,09-22-2026 21:33:38:867,-158935.968,-130057.514,-86450.378,-91919.046,-84910.03,-97387.892,-85481.564,-141082.333
2.596,09-22-2026 21:33:38:871,-158759.3,-129628.629,-55992.55,-60632.415,-54551.578,-65306.254,-55519.319,-115004.017
2.6,09-22-2026 21:33:38:875,-158710.484,-130130.739,-95822.018,-98786.843,-95029.514,-104262.528,-96520.286,-112750.335
2.604,09-22-2026 21:33:38:879,-158861.045,-130924.315,-155057.449,-157445.375,-153482.724,-162391.771,-155725.766,-138115.229
2.608,09-22-2026 21:33:38:883,-158988.45,-130808.756,-144140.142,-148298.505,-142577.933,-153219.688,-143891.858,-153562.609
2.612,09-22-2026 21:33:38:887,-158932.392,-130052.373,-86434.375,-91892.805,-84938.328,-96658.51,-85511.248,-141333.433
2.616,09-22-2026 21:33:38:891,-158754.025,-129621.655,-56021.876,-60640.998,-54560.698,-65320.559,-55532.015,-114944.159
2.62,09-22-2026 21:33:38:895,-158705.611,-130136.416,-96571.874,-99515.197,-94285.291,-103537.572,-96556.228,-112691.416
2.624,09-22-2026 21:33:38:899,-158855.949,-130924.315,-155057.449,-157445.375,-153482.724,-162391.771,-155725.766,-137793.408
2.628,09-22-2026 21:33:38:903,-158985.902,-130808.756,-143360.334,-147536.266,-142577.933,-153219.688,-143891.858,-153562.609
2.632,09-22-2026 21:33:38:907,-158924.748,-130052.373,-86434.375,-91892.805,-84938.328,-96658.51,-85511.248,-141011.613
2.636,09-22-2026 21:33:38:911,-158746.381,-129621.655,-56021.876,-60640.998,-54560.698,-65320.559,-55532.015,-114944.159
2.64,09-22-2026 21:33:38:915,-158697.967,-130125.911,-96571.874,-99515.197,-94285.291,-103537.572,-96556.228,-112691.416
2.644,09-22-2026 21:33:38:919,-158848.305,-130924.315,-155057.449,-157445.375,-153482.724,-162391.771,-155725.766,-137793.408
2.648,09-22-2026 21:33:38:923,-158975.71,-130798.251,-143360.334,-147536.266,-142577.933,-153219.688,-143891.858,-153562.609
2.652,09-22-2026 21:33:38:927,-158914.555,-130041.868,-86434.375,-91892.805,-84938.328,-96658.51,-85511.248,-141011.613
2.656,09-22-2026 21:33:38:931,-158736.188,-129600.645,-56021.876,-60640.998,-54560.698,-65320.559,-55532.015,-114944.159
2.66,09-22-2026 21:33:38:935,-158687.774,-130115.405,-96571.874,-99515.197,-95064.204,-103537.572,-96556.228,-112691.416
2.664,09-22-2026 21:33:38:939,-158838.112,-130913.81,-155057.449,-157445.375,-153482.724,-162391.771,-155725.766,-137793.408
2.668,09-22-2026 21:33:38:943,-158965.517,-130787.746,-143360.334,-147536.266,-142577.933,-153219.688,-143891.858,-153562.609
2.672,09-22-2026 21:33:38:947,-158904.363,-130031.363,-86434.375,-91892.805,-84938.328,-96658.51,-85511.248,-141011.613
2.676,09-22-2026 21:33:38:951,-158725.996,-129590.139,-56021.876,-60640.998,-54560.698,-65320.559,-55532.015,-114944.159
2.68,09-22-2026 21:33:38:955,-158675.034,-130104.9,-96571.874,-99515.197,-95064.204,-103537.572,-96556.228,-112691.416
2.684,09-22-2026 21:33:38:959,-158825.372,-130903.304,-155057.449,-157445.375,-153482.724,-162391.771,-155725.766,-137793.408
2.688,09-22-2026 21:33:38:963,-158955.325,-130777.24,-143360.334,-147536.266,-142577.933,-153219.688,-143891.858,-153562.609
2.692,09-22-2026 21:33:38:967,-158891.622,-130020.857,-85654.567,-91892.805,-84938.328,-96658.51,-85511.248,-141011.613
2.696,09-22-2026 21:33:38:971,-158715.803,-129590.139,-56021.876,-60640.998,-54560.698,-65320.559,-55532.015,-114944.159
2.7,09-22-2026 21:33:38:975,-158664.841,-130094.395,-96571.874,-98752.957,-94285.291,-103537.572,-96556.228,-112691.416
2.704,09-22-2026 21:33:38:979,-158813.302,-130884.484,-154798.616,-157184.351,-153363.321,-162287.702,-155609.76,-137733.193
2.708,09-22-2026 21:33:38:983,-158940.17,-130765.975,-143090.772,-147265.362,-142474.177,-153126.884,-143793.287,-153456.393
2.712,09-22-2026 21:33:38:987,-158881.162,-130011.827,-86112.599,-91566.425,-84917.272,-96635.174,-85498.686,-140942.009
2.716,09-22-2026 21:33:38:991,-158701.185,-129580.886,-55672.205,-60283.459,-54583.228,-65335.714,-55563.62,-114950.596
2.72,09-22-2026 21:33:38:995,-158648.078,-130087.242,-96259.397,-99196.416,-95028.62,-103505.788,-96527.394,-112704.425
2.724,09-22-2026 21:33:38:999,-158795.599,-130873.711,-154798.616,-157184.351,-153363.321,-162287.702,-155609.76,-138054.074
2.728,09-22-2026 21:33:39:003,-158922.468,-130755.202,-143090.772,-147265.362,-142474.177,-153126.884,-143793.287,-153456.393
2.732,09-22-2026 21:33:39:007,-158860.509,-129990.28,-86112.599,-91566.425,-84917.272,-96635.174,-85498.686,-140942.009
2.736,09-22-2026 21:33:39:011,-158680.532,-129559.339,-55672.205,-60283.459,-54583.228,-65335.714,-55563.62,-114950.596
2.74,09-22-2026 21:33:39:015,-158627.425,-130076.469,-96259.397,-99196.416,-95028.62,-104269.189,-97315.159,-112704.425
2.744,09-22-2026 21:33:39:019,-158774.946,-130862.937,-154798.616,-157184.351,-153363.321,-162287.702,-155609.76,-138054.074
2.748,09-22-2026 21:33:39:023,-158901.815,-130744.428,-143090.772,-147265.362,-142474.177,-152363.482,-143793.287,-153456.393
2.752,09-22-2026 21:33:39:027,-158839.856,-129979.507,-86112.599,-91566.425,-84917.272,-96635.174,-85498.686,-140942.009
2.756,09-22-2026 21:33:39:031,-158656.929,-129548.565,-55672.205,-60283.459,-54583.228,-65335.714,-55563.62,-114950.596
2.76,09-22-2026 21:33:39:035,-158606.772,-130065.695,-96259.397,-99196.416,-95028.62,-104269.189,-96527.394,-112704.425
2.764,09-22-2026 21:33:39:039,-158754.293,-130852.164,-154798.616,-157184.351,-153363.321,-162287.702,-155609.76,-138054.074
2.768,09-22-2026 21:33:39:043,-158881.162,-130733.655,-143090.772,-147265.362,-142474.177,-152363.482,-143793.287,-153456.393
2.772,09-22-2026 21:33:39:047,-158819.203,-129968.733,-85332.076,-91566.425,-84917.272,-96635.174,-85498.686,-140942.009
2.776,09-22-2026 21:33:39:051,-158639.226,-129537.792,-55672.205,-60283.459,-54583.228,-65335.714,-55563.62,-114950.596
2.78,09-22-2026 21:33:39:055,-158586.119,-130044.148,-96259.397,-98433.417,-95028.62,-104269.189,-97315.159,-112704.425
2.784,09-22-2026 21:33:39:059,-158736.591,-130841.39,-154798.616,-157184.351,-153363.321,-162287.702,-155609.76,-138054.074
2.788,09-22-2026 21:33:39:063,-158863.459,-130712.108,-143090.772,-147265.362,-142474.177,-153126.884,-143793.287,-153456.393
2.792,09-22-2026 21:33:39:067,-158798.55,-129957.96,-85332.076,-91566.425,-84917.272,-96635.174,-85498.686,-140942.009
2.796,09-22-2026 21:33:39:071,-158618.573,-129516.244,-55672.205,-60283.459,-54583.228,-65335.714,-55563.62,-114950.596
2.8,09-22-2026 21:33:39:075,-158565.466,-130022.601,-96259.397,-98433.417,-94250.824,-103505.788,-96527.394,-112704.425
2.804,09-22-2026 21:33:39:079,-158712.853,-130808.935,-154620.964,-157003.168,-153101.761,-162025.963,-155349.139,-137766.005
2.808,09-22-2026 21:33:39:083,-158838.917,-130702.094,-142930.555,-147098.708,-142202.603,-152856.025,-143521.266,-153256.3
2.812,09-22-2026 21:33:39:087,-158777.226,-129932.836,-85257.868,-91481.354,-84592.77,-96308.079,-85170.428,-140993.15
2.816,09-22-2026 21:33:39:091,-158597.518,-129494.787,-55642.164,-60244.21,-54230.831,-64977.46,-55206.484,-114853.277
2.82,09-22-2026 21:33:39:095,-158546.556,-130007.625,-96168.917,-99100.169,-94713.416,-103949.693,-96998.301,-112594.275
2.824,09-22-2026 21:33:39:099,-158696.76,-130798.251,-154620.964,-157003.168,-153101.761,-162025.963,-155349.139,-137766.005
2.828,09-22-2026 21:33:39:103,-158822.824,-130680.726,-142930.555,-147098.708,-142202.603,-152856.025,-143521.266,-153256.3
2.832,09-22-2026 21:33:39:107,-158761.133,-129911.468,-85257.868,-91481.354,-84592.77,-96308.079,-85170.428,-140670.436
2.836,09-22-2026 21:33:39:111,-158584.107,-129484.103,-55642.164,-60244.21,-54230.831,-64977.46,-55206.484,-114530.562
2.84,09-22-2026 21:33:39:115,-158533.145,-129996.941,-96168.917,-99100.169,-94713.416,-103949.693,-96998.301,-112594.275
2.844,09-22-2026 21:33:39:119,-158683.349,-130787.567,-154620.964,-157003.168,-153101.761,-162025.963,-155349.139,-137766.005
2.848,09-22-2026 21:33:39:123,-158812.095,-130670.042,-142930.555,-147098.708,-142202.603,-152091.864,-143521.266,-153256.3
2.852,09-22-2026 21:33:39:127,-158750.404,-129900.784,-85257.868,-90719.472,-84592.77,-96308.079,-85170.428,-140670.436
2.856,09-22-2026 21:33:39:131,-158568.014,-129473.419,-55642.164,-60244.21,-54230.831,-64977.46,-55206.484,-114530.562
2.86,09-22-2026 21:33:39:135,-158519.734,-129986.257,-96168.917,-99100.169,-94713.416,-103949.693,-96998.301,-112594.275
2.864,09-22-2026 21:33:39:139,-158669.938,-130776.883,-154620.964,-157003.168,-153101.761,-162025.963,-155349.139,-137766.005
2.868,09-22-2026 21:33:39:143,-158798.684,-130648.673,-142930.555,-147098.708,-142202.603,-152091.864,-143521.266,-153256.3
2.872,09-22-2026 21:33:39:147,-158734.311,-129890.1,-85257.868,-90719.472,-84592.77,-96308.079,-85170.428,-140670.436
2.876,09-22-2026 21:33:39:151,-158557.285,-129462.734,-55642.164,-60244.21,-54230.831,-64977.46,-55206.484,-114530.562
2.88,09-22-2026 21:33:39:155,-158506.323,-129975.573,-96168.917,-99100.169,-94713.416,-103185.532,-96209.776,-112271.561
2.884,09-22-2026 21:33:39:159,-158656.527,-130766.199,-154620.964,-157003.168,-153101.761,-162025.963,-155349.139,-137443.291
2.888,09-22-2026 21:33:39:163,-158785.273,-130637.989,-142930.555,-147098.708,-141424.092,-152091.864,-142732.742,-153256.3
2.892,09-22-2026 21:33:39:167,-158723.582,-129879.416,-85257.868,-90719.472,-84592.77,-96308.079,-85170.428,-140670.436
2.896,09-22-2026 21:33:39:171,-158543.874,-129452.05,-55642.164,-60244.21,-54230.831,-64977.46,-55206.484,-114207.848
2.9,09-22-2026 21:33:39:175,-158498.276,-129975.573,-96168.917,-99100.169,-93934.905,-103185.532,-96209.776,-112271.561
2.904,09-22-2026 21:33:39:179,-158648.882,-130759.001,-154906.351,-157292.355,-152932.915,-161846.21,-155162.725,-137308.599
2.908,09-22-2026 21:33:39:183,-158777.047,-130645.41,-143191.802,-147365.811,-142049.404,-152689.147,-143354.299,-153014.276
2.912,09-22-2026 21:33:39:187,-158714.328,-129881.248,-85400.025,-90860.869,-84522.272,-96220.594,-85099.394,-140513.839
2.916,09-22-2026 21:33:39:191,-158537.079,-129457.862,-55723.167,-60317.658,-54203.919,-64933.963,-55184.714,-114230.87
2.92,09-22-2026 21:33:39:195,-158482.541,-129974.187,-96333.605,-99260.253,-94628.39,-103088.391,-96120.592,-112307.726
2.924,09-22-2026 21:33:39:199,-158632.521,-130759.001,-154906.351,-157292.355,-152932.915,-161846.21,-155162.725,-137629.123
2.928,09-22-2026 21:33:39:203,-158757.959,-130635.083,-143191.802,-147365.811,-142049.404,-151926.059,-143354.299,-153014.276
2.932,09-22-2026 21:33:39:207,-158695.24,-129881.248,-85400.025,-90860.869,-84522.272,-96220.594,-84312.166,-140513.839
2.936,09-22-2026 21:33:39:211,-158512.537,-129447.535,-55723.167,-60317.658,-54203.919,-64933.963,-55184.714,-114230.87
2.94,09-22-2026 21:33:39:215,-158460.725,-129963.861,-96333.605,-99260.253,-94628.39,-103851.48,-96120.592,-112307.726
2.944,09-22-2026 21:33:39:219,-158610.706,-130748.675,-154906.351,-157292.355,-152932.915,-161846.21,-155162.725,-137629.123
2.948,09-22-2026 21:33:39:223,-158736.144,-130635.083,-143191.802,-147365.811,-142049.404,-151926.059,-143354.299,-153014.276
2.952,09-22-2026 21:33:39:227,-158670.698,-129870.922,-85400.025,-90860.869,-83744.879,-96220.594,-84312.166,-140513.839
2.956,09-22-2026 21:33:39:231,-158490.721,-129447.535,-55723.167,-60317.658,-54203.919,-64933.963,-55184.714,-114230.87
2.96,09-22-2026 21:33:39:235,-158441.637,-129963.861,-96333.605,-99260.253,-94628.39,-103851.48,-96907.821,-112307.726
2.964,09-22-2026 21:33:39:239,-158594.344,-130748.675,-154906.351,-157292.355,-152932.915,-161846.21,-155162.725,-137629.123
2.968,09-22-2026 21:33:39:243,-158719.782,-130624.757,-143191.802,-147365.811,-141272.01,-151926.059,-142567.07,-153014.276
2.972,09-22-2026 21:33:39:247,-158657.063,-129860.595,-85400.025,-90860.869,-83744.879,-95457.506,-84312.166,-140193.315
2.976,09-22-2026 21:33:39:251,-158479.814,-129447.535,-55723.167,-60317.658,-54203.919,-64933.963,-55184.714,-114230.87
2.98,09-22-2026 21:33:39:255,-158430.729,-129963.861,-96333.605,-99260.253,-94628.39,-103851.48,-96120.592,-112307.726
2.984,09-22-2026 21:33:39:259,-158583.436,-130748.675,-154906.351,-157292.355,-152932.915,-161846.21,-155162.725,-137629.123
2.988,09-22-2026 21:33:39:263,-158711.601,-130624.757,-143191.802,-147365.811,-141272.01,-151926.059,-142567.07,-153014.276
2.992,09-22-2026 21:33:39:267,-158651.609,-129870.922,-85400.025,-90860.869,-83744.879,-95457.506,-84312.166,-140193.315
2.996,09-22-2026 21:33:39:271,-158474.36,-129447.535,-55723.167,-60317.658,-54203.919,-64933.963,-55184.714,-114230.87
3,09-22-2026 21:33:39:275,-158430.729,-129974.187,-97114.575,-99260.253,-94628.39,-103851.48,-96907.821,-112307.726
3.004,09-22-2026 21:33:39:279,-158579.95,-130758.063,-155129.913,-157515.738,-153223.712,-162139.867,-155447.487,-137743.653
3.008,09-22-2026 21:33:39:283,-158707.355,-130633.608,-143390.553,-147567.692,-141538.667,-152197.632,-142826.798,-153152.41
3.012,09-22-2026 21:33:39:287,-158646.2,-129876.51,-84693.755,-90940.352,-83892.445,-95603.373,-84456.111,-140311.779
3.016,09-22-2026 21:33:39:291,-158467.833,-129451.29,-55736.668,-60330.979,-54290.331,-65011.882,-55270.768,-114309.503
3.02,09-22-2026 21:33:39:295,-158419.419,-129969.851,-97215.739,-99357.93,-94798.487,-104016.033,-97076.8,-112383.409
3.024,09-22-2026 21:33:39:299,-158572.305,-130758.063,-155129.913,-157515.738,-153223.712,-162139.867,-155447.487,-137743.653
3.028,09-22-2026 21:33:39:303,-158699.71,-130633.608,-143390.553,-147567.692,-141538.667,-152197.632,-142826.798,-153152.41
3.032,09-22-2026 21:33:39:307,-158636.008,-129876.51,-84693.755,-90940.352,-83892.445,-95603.373,-84456.111,-140311.779
3.036,09-22-2026 21:33:39:311,-158457.641,-129451.29,-55736.668,-60330.979,-54290.331,-65011.882,-55270.768,-114309.503
3.04,09-22-2026 21:33:39:315,-158409.227,-129969.851,-96433.115,-99357.93,-94798.487,-104016.033,-97076.8,-112383.409
3.044,09-22-2026 21:33:39:319,-158559.565,-130758.063,-155129.913,-157515.738,-153223.712,-162139.867,-155447.487,-137743.653
3.048,09-22-2026 21:33:39:323,-158689.518,-130633.608,-142607.929,-146802.458,-141538.667,-152197.632,-142826.798,-153152.41
3.052,09-22-2026 21:33:39:327,-158625.815,-129866.139,-84693.755,-90940.352,-83892.445,-95603.373,-84456.111,-140311.779
3.056,09-22-2026 21:33:39:331,-158447.448,-129440.919,-55736.668,-60330.979,-54290.331,-65011.882,-55270.768,-114309.503
3.06,09-22-2026 21:33:39:335,-158399.035,-129959.48,-97215.739,-99357.93,-94798.487,-104016.033,-97076.8,-112383.409
3.064,09-22-2026 21:33:39:339,-158551.92,-130747.691,-155129.913,-157515.738,-153223.712,-162139.867,-155447.487,-137743.653
3.068,09-22-2026 21:33:39:343,-158676.777,-130612.866,-142607.929,-146802.458,-141538.667,-152197.632,-142826.798,-153152.41
3.072,09-22-2026 21:33:39:347,-158615.623,-129855.767,-84693.755,-90940.352,-83892.445,-95603.373,-84456.111,-140311.779
3.076,09-22-2026 21:33:39:351,-158437.256,-129440.919,-55736.668,-60330.979,-54290.331,-65011.882,-55270.768,-114309.503
3.08,09-22-2026 21:33:39:355,-158391.39,-129959.48,-97215.739,-100123.164,-94798.487,-104016.033,-97076.8,-112383.409
3.084,09-22-2026 21:33:39:359,-158541.728,-130747.691,-155129.913,-157515.738,-153223.712,-162139.867,-155447.487,-137743.653
3.088,09-22-2026 21:33:39:363,-158671.681,-130612.866,-142607.929,-146802.458,-141538.667,-152197.632,-142826.798,-153152.41
3.092,09-22-2026 21:33:39:367,-158607.979,-129855.767,-84693.755,-90175.118,-83892.445,-95603.373,-84456.111,-140311.779
3.096,09-22-2026 21:33:39:371,-158432.16,-129440.919,-55736.668,-60330.979,-54290.331,-65011.882,-55270.768,-114309.503
3.1,09-22-2026 21:33:39:375,-158383.746,-129959.48,-96433.115,-99357.93,-94798.487,-104016.033,-97076.8,-112383.409
3.104,09-22-2026 21:33:39:379,-158537.928,-130751.491,-155049.626,-157454.539,-153448.57,-162366.648,-155672.077,-137823.851
3.108,09-22-2026 21:33:39:383,-158663.992,-130615.503,-142566.981,-146771.925,-141738.715,-152402.911,-143024.924,-153206.858
3.112,09-22-2026 21:33:39:387,-158604.984,-129862.339,-84834.75,-90306.68,-83970.095,-95686.253,-84531.839,-140387.686
3.116,09-22-2026 21:33:39:391,-158427.958,-129443.914,-55968.634,-60547.97,-54305.128,-65028.601,-55285.296,-114108.382
3.12,09-22-2026 21:33:39:395,-158382.36,-129966.945,-97317.394,-99463.206,-94899.293,-104117.108,-97178.992,-112505.986
3.124,09-22-2026 21:33:39:399,-158532.564,-130751.491,-155049.626,-157454.539,-153448.57,-162366.648,-155672.077,-137823.851
3.128,09-22-2026 21:33:39:403,-158661.31,-130625.964,-142566.981,-146771.925,-141738.715,-152402.911,-143024.924,-153206.858
3.132,09-22-2026 21:33:39:407,-158596.937,-129862.339,-84834.75,-90306.68,-83970.095,-95686.253,-84531.839,-140387.686
3.136,09-22-2026 21:33:39:411,-158419.911,-129454.375,-55968.634,-60547.97,-54305.128,-65028.601,-55285.296,-114108.382
3.14,09-22-2026 21:33:39:415,-158374.314,-129977.406,-97317.394,-100226.25,-94899.293,-104117.108,-97178.992,-112505.986
3.144,09-22-2026 21:33:39:419,-158527.199,-130751.491,-155049.626,-157454.539,-153448.57,-162366.648,-155672.077,-137823.851
3.148,09-22-2026 21:33:39:423,-158653.263,-130625.964,-142566.981,-146771.925,-141738.715,-152402.911,-143024.924,-153206.858
3.152,09-22-2026 21:33:39:427,-158588.89,-129862.339,-84834.75,-90306.68,-83970.095,-95686.253,-84531.839,-140387.686
3.156,09-22-2026 21:33:39:431,-158409.182,-129443.914,-55968.634,-60547.97,-54305.128,-65028.601,-55285.296,-114428.862
3.16,09-22-2026 21:33:39:435,-158360.902,-129966.945,-97317.394,-100226.25,-94899.293,-104117.108,-97178.992,-112505.986
3.164,09-22-2026 21:33:39:439,-158511.106,-130741.031,-155049.626,-157454.539,-153448.57,-162366.648,-155672.077,-137823.851
3.168,09-22-2026 21:33:39:443,-158634.488,-130605.043,-142566.981,-146771.925,-141738.715,-151636.47,-143024.924,-153206.858
3.172,09-22-2026 21:33:39:447,-158570.115,-129841.418,-84834.75,-90306.68,-83970.095,-95686.253,-84531.839,-140387.686
3.176,09-22-2026 21:33:39:451,-158387.725,-129422.993,-55968.634,-60547.97,-54305.128,-65028.601,-55285.296,-114108.382
3.18,09-22-2026 21:33:39:455,-158342.127,-129946.024,-97317.394,-100226.25,-95679.95,-104883.549,-97178.992,-112505.986
3.184,09-22-2026 21:33:39:459,-158495.013,-130730.57,-155049.626,-157454.539,-153448.57,-162366.648,-155672.077,-138144.331
3.188,09-22-2026 21:33:39:463,-158621.077,-130594.582,-142566.981,-146771.925,-141738.715,-151636.47,-143024.924,-153206.858
3.192,09-22-2026 21:33:39:467,-158554.022,-129830.957,-84834.75,-90306.68,-83189.438,-94919.812,-83741.392,-140387.686
3.196,09-22-2026 21:33:39:471,-158374.314,-129422.993,-55968.634,-60547.97,-54305.128,-65028.601,-55285.296,-114108.382
3.2,09-22-2026 21:33:39:475,-158326.034,-129935.563,-97317.394,-99463.206,-94899.293,-104117.108,-97178.992,-112505.986
3.204,09-22-2026 21:33:39:479,-158478.428,-130713.091,-155030.224,-157444.615,-153372.351,-162304.6,-155589.331,-137846.471
3.208,09-22-2026 21:33:39:483,-158603.598,-130586.491,-142569.753,-146778.899,-141698.705,-151604.462,-142982.947,-153152.231
3.212,09-22-2026 21:33:39:487,-158541.013,-129826.889,-84940.071,-90402.972,-83330.477,-95810.887,-83890.523,-140397.431
3.216,09-22-2026 21:33:39:491,-158360.768,-129404.888,-56125.23,-60691.334,-54535.485,-65239.065,-55526.159,-114250.092
3.22,09-22-2026 21:33:39:495,-158315.707,-129932.389,-97400.543,-99545.014,-95004.123,-104218.138,-97284.805,-112655.742
3.224,09-22-2026 21:33:39:499,-158468.414,-130713.091,-155030.224,-157444.615,-153372.351,-162304.6,-155589.331,-137846.471
3.228,09-22-2026 21:33:39:503,-158596.088,-130575.941,-142569.753,-146778.899,-141698.705,-151604.462,-142982.947,-153152.231
3.232,09-22-2026 21:33:39:507,-158530.999,-129816.339,-84940.071,-90402.972,-83330.477,-95810.887,-83890.523,-140397.431
3.236,09-22-2026 21:33:39:511,-158353.258,-129404.888,-56125.23,-60691.334,-54535.485,-65239.065,-55526.159,-114250.092
3.24,09-22-2026 21:33:39:515,-158305.694,-129921.839,-97400.543,-100306.851,-95782.366,-104982.433,-97284.805,-112655.742
3.244,09-22-2026 21:33:39:519,-158460.904,-130702.541,-155030.224,-157444.615,-153372.351,-162304.6,-155589.331,-138165.341
3.248,09-22-2026 21:33:39:523,-158586.074,-130565.391,-142569.753,-146778.899,-140920.462,-151604.462,-142195.048,-153152.231
3.252,09-22-2026 21:33:39:527,-158518.482,-129805.789,-84940.071,-90402.972,-83330.477,-95046.591,-83890.523,-140397.431
3.256,09-22-2026 21:33:39:531,-158338.238,-129394.338,-56125.23,-60691.334,-54535.485,-65239.065,-55526.159,-114250.092
3.26,09-22-2026 21:33:39:535,-158293.177,-129911.289,-97400.543,-100306.851,-95782.366,-104218.138,-97284.805,-112655.742
3.264,09-22-2026 21:33:39:539,-158445.884,-130691.991,-155030.224,-157444.615,-153372.351,-162304.6,-155589.331,-138165.341
3.268,09-22-2026 21:33:39:543,-158576.06,-130554.841,-142569.753,-146778.899,-140920.462,-151604.462,-142195.048,-153152.231
3.272,09-22-2026 21:33:39:547,-158508.469,-129795.239,-84940.071,-90402.972,-83330.477,-95046.591,-83890.523,-140078.561
3.276,09-22-2026 21:33:39:551,-158330.728,-129383.788,-56125.23,-60691.334,-54535.485,-65239.065,-55526.159,-114250.092
3.28,09-22-2026 21:33:39:555,-158285.666,-129900.739,-97400.543,-100306.851,-95782.366,-104982.433,-97284.805,-112655.742
3.284,09-22-2026 21:33:39:559,-158443.38,-130681.441,-155030.224,-157444.615,-153372.351,-162304.6,-155589.331,-138165.341
3.288,09-22-2026 21:33:39:563,-158571.054,-130544.291,-142569.753,-146778.899,-140920.462,-151604.462,-142195.048,-153152.231
3.292,09-22-2026 21:33:39:567,-158505.965,-129784.689,-84161.292,-90402.972,-83330.477,-95046.591,-83890.523,-140078.561
3.296,09-22-2026 21:33:39:571,-158328.224,-129373.238,-56125.23,-60691.334,-54535.485,-65239.065,-55526.159,-114250.092
3.3,09-22-2026 21:33:39:575,-158285.666,-129900.739,-98179.322,-100306.851,-95782.366,-104218.138,-97284.805,-112655.742
3.304,09-22-2026 21:33:39:579,-158443.783,-130671.83,-155102.733,-157524.098,-153349.463,-162294.541,-155565.951,-137866.722
3.308,09-22-2026 21:33:39:583,-158572.529,-130543.084,-142572.167,-146795.797,-140919.747,-151612.553,-142195.227,-153131.712
3.312,09-22-2026 21:33:39:587,-158508.156,-129770.607,-84618.295,-90089.064,-83432.312,-95150.616,-83993.251,-140092.866
3.316,09-22-2026 21:33:39:591,-158333.812,-129362.912,-55641.36,-60203.083,-54688.594,-65393.649,-55678.777,-114333.196
3.32,09-22-2026 21:33:39:595,-158288.215,-129877.896,-97148.862,-99284.75,-95862.028,-104306.606,-97363.975,-112743.093
3.324,09-22-2026 21:33:39:599,-158441.101,-130671.83,-155102.733,-157524.098,-153349.463,-162294.541,-155565.951,-137866.722
3.328,09-22-2026 21:33:39:603,-158569.847,-130543.084,-142572.167,-146795.797,-140919.747,-151612.553,-142195.227,-153131.712
3.332,09-22-2026 21:33:39:607,-158505.474,-129770.607,-84618.295,-90089.064,-83432.312,-95150.616,-83993.251,-140092.866
3.336,09-22-2026 21:33:39:611,-158325.766,-129352.183,-55641.36,-60203.083,-54688.594,-65393.649,-55678.777,-114333.196
3.34,09-22-2026 21:33:39:615,-158280.168,-129877.896,-97148.862,-100051.057,-95862.028,-104306.606,-97363.975,-112743.093
3.344,09-22-2026 21:33:39:619,-158433.054,-130661.101,-155102.733,-157524.098,-153349.463,-162294.541,-155565.951,-138184.743
3.348,09-22-2026 21:33:39:623,-158559.118,-130521.626,-142572.167,-146795.797,-140919.747,-151612.553,-142195.227,-153131.712
3.352,09-22-2026 21:33:39:627,-158494.745,-129759.878,-84618.295,-90089.064,-83432.312,-95150.616,-83993.251,-140092.866
3.356,09-22-2026 21:33:39:631,-158315.037,-129341.454,-55641.36,-60203.083,-54688.594,-65393.649,-55678.777,-114333.196
3.36,09-22-2026 21:33:39:635,-158269.439,-129867.167,-97148.862,-100051.057,-95862.028,-105069.605,-98150.489,-112743.093
3.364,09-22-2026 21:33:39:639,-158422.325,-130639.643,-155102.733,-157524.098,-153349.463,-162294.541,-155565.951,-138184.743
3.368,09-22-2026 21:33:39:643,-158548.389,-130510.897,-142572.167,-146795.797,-140919.747,-151612.553,-142195.227,-153131.712
3.372,09-22-2026 21:33:39:647,-158481.334,-129738.421,-83835.135,-90089.064,-83432.312,-95150.616,-83993.251,-140092.866
3.376,09-22-2026 21:33:39:651,-158301.626,-129330.725,-55641.36,-60203.083,-54688.594,-65393.649,-55678.777,-114333.196
3.38,09-22-2026 21:33:39:655,-158253.346,-129845.709,-97148.862,-100051.057,-95862.028,-105069.605,-98150.489,-112743.093
3.384,09-22-2026 21:33:39:659,-158406.232,-130628.914,-155102.733,-157524.098,-153349.463,-162294.541,-155565.951,-138184.743
3.388,09-22-2026 21:33:39:663,-158529.613,-130489.439,-142572.167,-146029.49,-140919.747,-151612.553,-142195.227,-153131.712
3.392,09-22-2026 21:33:39:667,-158462.558,-129716.963,-83835.135,-89322.756,-83432.312,-95150.616,-83993.251,-140092.866
3.396,09-22-2026 21:33:39:671,-158282.85,-129309.267,-55641.36,-60203.083,-54688.594,-65393.649,-55678.777,-114015.176
3.4,09-22-2026 21:33:39:675,-158237.253,-129834.98,-97148.862,-100051.057,-95862.028,-105069.605,-98150.489,-112743.093
3.404,09-22-2026 21:33:39:679,-158388.663,-130601.198,-154884.714,-157297.317,-153423.044,-162372.996,-155638.013,-138366.194
3.408,09-22-2026 21:33:39:683,-158512.045,-130467.088,-142250.436,-146478.894,-140922.518,-151627.797,-142193.573,-153085.623
3.412,09-22-2026 21:33:39:687,-158447.27,-129695.952,-83816.896,-89295.8,-83107.586,-94831.746,-83670.716,-139966.132
3.416,09-22-2026 21:33:39:691,-158268.366,-129293.621,-55389.769,-59931.509,-54200.119,-64898.692,-55200.136,-114047.139
3.42,09-22-2026 21:33:39:695,-158219.014,-129807.711,-96451.175,-99341.479,-94826.829,-104041.917,-97115.156,-112447.201
3.424,09-22-2026 21:33:39:699,-158367.072,-130590.022,-154884.714,-157297.317,-153423.044,-162372.996,-155638.013,-137726.219
3.428,09-22-2026 21:33:39:703,-158490.453,-130444.736,-142250.436,-146478.894,-140922.518,-151627.797,-142193.573,-153085.623
3.432,09-22-2026 21:33:39:707,-158425.678,-129673.601,-83816.896,-89295.8,-83107.586,-94831.746,-83670.716,-139966.132
3.436,09-22-2026 21:33:39:711,-158243.69,-129260.093,-54600.126,-59158.764,-54200.119,-64898.692,-55200.136,-114047.139
3.44,09-22-2026 21:33:39:715,-158194.337,-129785.359,-96451.175,-99341.479,-95608.112,-104809.431,-97906.005,-112447.201
3.444,09-22-2026 21:33:39:719,-158342.395,-130556.495,-154884.714,-157297.317,-153423.044,-162372.996,-155638.013,-138046.207
3.448,09-22-2026 21:33:39:723,-158465.777,-130422.384,-142250.436,-146478.894,-140922.518,-151627.797,-142193.573,-153085.623
3.452,09-22-2026 21:33:39:727,-158397.917,-129651.249,-83816.896,-89295.8,-83107.586,-94831.746,-83670.716,-139966.132
3.456,09-22-2026 21:33:39:731,-158215.929,-129237.742,-54600.126,-59158.764,-54200.119,-64898.692,-55200.136,-114047.139
3.46,09-22-2026 21:33:39:735,-158163.492,-129763.008,-97240.817,-99341.479,-95608.112,-104809.431,-97906.005,-112447.201
3.464,09-22-2026 21:33:39:739,-158314.634,-130534.143,-154884.714,-157297.317,-153423.044,-162372.996,-155638.013,-138046.207
3.468,09-22-2026 21:33:39:743,-158438.016,-130388.857,-141460.793,-145706.149,-140922.518,-151627.797,-142193.573,-153085.623
3.472,09-22-2026 21:33:39:747,-158370.156,-129617.721,-83027.254,-89295.8,-83107.586,-94831.746,-83670.716,-139966.132
3.476,09-22-2026 21:33:39:751,-158188.168,-129204.214,-54600.126,-59158.764,-54200.119,-64898.692,-55200.136,-113727.151
3.48,09-22-2026 21:33:39:755,-158141.9,-129729.48,-97240.817,-99341.479,-95608.112,-104809.431,-97906.005,-112447.201
3.484,09-22-2026 21:33:39:759,-158293.043,-130511.791,-154884.714,-157297.317,-153423.044,-162372.996,-155638.013,-138046.207
3.488,09-22-2026 21:33:39:763,-158419.509,-130366.505,-141460.793,-145706.149,-140922.518,-151627.797,-142193.573,-153085.623
3.492,09-22-2026 21:33:39:767,-158351.649,-129595.37,-83027.254,-88523.056,-82326.303,-94831.746,-82879.866,-139646.144
3.496,09-22-2026 21:33:39:771,-158169.661,-129181.862,-54600.126,-59158.764,-54200.119,-64898.692,-55200.136,-113727.151
3.5,09-22-2026 21:33:39:775,-158120.308,-129707.128,-96451.175,-99341.479,-95608.112,-104809.431,-97906.005,-112447.201
3.504,09-22-2026 21:33:39:779,-158272.971,-130471.782,-154240.045,-156654.615,-153202.969,-162158.509,-155423.973,-137876.065
3.508,09-22-2026 21:33:39:783,-158395.995,-130337.135,-140872.361,-145111.057,-140599.446,-151322.562,-141868.578,-152815.524
3.512,09-22-2026 21:33:39:787,-158330.191,-129551.694,-82683.618,-88162.835,-82308.153,-94046.842,-82862.745,-139824.69
3.516,09-22-2026 21:33:39:791,-158149.947,-129147.754,-54375.58,-58919.154,-53950.227,-64634.986,-54954.58,-113518.252
3.52,09-22-2026 21:33:39:795,-158101.309,-129663.9,-96051.302,-98936.823,-94911.676,-104108.793,-97215.515,-111894.397
3.524,09-22-2026 21:33:39:799,-158252.944,-130449.34,-154240.045,-156654.615,-153202.969,-162158.509,-155423.973,-137551.294
3.528,09-22-2026 21:33:39:803,-158375.968,-130303.473,-140872.361,-145111.057,-140599.446,-151322.562,-141868.578,-152815.524
3.532,09-22-2026 21:33:39:807,-158310.164,-129529.253,-82683.618,-88162.835,-82308.153,-94046.842,-82862.745,-139499.919
3.536,09-22-2026 21:33:39:811,-158129.92,-129114.092,-54375.58,-58919.154,-53162.507,-63860.99,-54157.204,-113518.252
3.54,09-22-2026 21:33:39:815,-158084.143,-129652.68,-96837.636,-98936.823,-94911.676,-104108.793,-97215.515,-111894.397
3.544,09-22-2026 21:33:39:819,-158235.777,-130415.679,-154240.045,-156654.615,-153202.969,-162158.509,-155423.973,-137551.294
3.548,09-22-2026 21:33:39:823,-158361.662,-130281.032,-140872.361,-145111.057,-140599.446,-151322.562,-141868.578,-152815.524
3.552,09-22-2026 21:33:39:827,-158295.859,-129495.591,-82683.618,-88162.835,-82308.153,-94046.842,-82862.745,-139499.919
3.556,09-22-2026 21:33:39:831,-158118.475,-129091.651,-54375.58,-58919.154,-53162.507,-63860.99,-54157.204,-113518.252
3.56,09-22-2026 21:33:39:835,-158069.838,-129619.018,-96051.302,-98936.823,-95699.396,-104108.793,-97215.515,-111894.397
3.564,09-22-2026 21:33:39:839,-158221.472,-130393.238,-154240.045,-156654.615,-153202.969,-162158.509,-155423.973,-137551.294
3.568,09-22-2026 21:33:39:843,-158347.357,-130247.37,-140872.361,-145111.057,-140599.446,-150548.565,-141868.578,-152490.753
3.572,09-22-2026 21:33:39:847,-158278.693,-129473.15,-82683.618,-88162.835,-82308.153,-94046.842,-82862.745,-139175.149
3.576,09-22-2026 21:33:39:851,-158098.448,-129069.21,-54375.58,-58919.154,-53162.507,-63860.99,-54157.204,-113193.481
3.58,09-22-2026 21:33:39:855,-158052.672,-129596.577,-96051.302,-98936.823,-94911.676,-104108.793,-97215.515,-111894.397
3.584,09-22-2026 21:33:39:859,-158201.445,-130370.796,-154240.045,-156654.615,-153202.969,-162158.509,-155423.973,-137551.294
3.588,09-22-2026 21:33:39:863,-158327.33,-130236.149,-140872.361,-145111.057,-139811.726,-150548.565,-141071.202,-152490.753
3.592,09-22-2026 21:33:39:867,-158261.527,-129450.709,-82683.618,-88162.835,-81520.433,-93272.846,-82065.369,-138850.378
3.596,09-22-2026 21:33:39:871,-158081.282,-129046.768,-54375.58,-58919.154,-53162.507,-63860.99,-54157.204,-112868.71
3.6,09-22-2026 21:33:39:875,-158032.645,-129574.135,-96051.302,-98936.823,-94911.676,-104108.793,-97215.515,-111569.627
3.604,09-22-2026 21:33:39:879,-158183.564,-130348.266,-154798.616,-157207.508,-152559.507,-161522.244,-154781.181,-137223.707
3.608,09-22-2026 21:33:39:883,-158306.275,-130205.885,-141367.855,-145608.964,-140008.198,-149959.91,-141282.784,-152019.221
3.612,09-22-2026 21:33:39:887,-158240.829,-129428.268,-82114.498,-88389.482,-81173.936,-92919.063,-81731.031,-138831.915
3.616,09-22-2026 21:33:39:891,-158060.853,-129023.031,-54462.931,-59006.504,-52933.491,-63627.817,-53940.213,-112457.304
3.62,09-22-2026 21:33:39:895,-158014.495,-129548.744,-96335.303,-98441.553,-94509.702,-102939.752,-96023.452,-111170.737
3.624,09-22-2026 21:33:39:899,-158164.475,-130326.361,-154008.571,-156434.272,-152559.507,-161522.244,-154781.181,-136902.066
3.628,09-22-2026 21:33:39:903,-158289.913,-130194.933,-141367.855,-145608.964,-140008.198,-150730.732,-141282.784,-152019.221
3.632,09-22-2026 21:33:39:907,-158224.467,-129417.316,-82904.542,-88389.482,-81173.936,-92919.063,-81731.031,-138510.274
3.636,09-22-2026 21:33:39:911,-158044.491,-129012.079,-54462.931,-59006.504,-52933.491,-63627.817,-53940.213,-112457.304
3.64,09-22-2026 21:33:39:915,-157995.407,-129537.792,-97125.348,-99214.789,-94509.702,-103710.574,-96817.475,-111170.737
3.644,09-22-2026 21:33:39:919,-158148.114,-130315.409,-154798.616,-157207.508,-152559.507,-161522.244,-154781.181,-136902.066
3.648,09-22-2026 21:33:39:923,-158273.552,-130173.028,-141367.855,-145608.964,-139223.741,-149959.91,-140488.761,-152019.221
3.652,09-22-2026 21:33:39:927,-158208.106,-129395.411,-82904.542,-88389.482,-81173.936,-92919.063,-81731.031,-138510.274
3.656,09-22-2026 21:33:39:931,-158028.13,-128990.174,-54462.931,-59006.504,-52933.491,-63627.817,-53940.213,-112457.304
3.66,09-22-2026 21:33:39:935,-157979.045,-129515.887,-97125.348,-99988.025,-94509.702,-103710.574,-96817.475,-111170.737
3.664,09-22-2026 21:33:39:939,-158134.479,-130304.456,-154798.616,-157207.508,-152559.507,-161522.244,-154781.181,-136902.066
3.668,09-22-2026 21:33:39:943,-158259.917,-130151.123,-141367.855,-145608.964,-139223.741,-149959.91,-140488.761,-152019.221
3.672,09-22-2026 21:33:39:947,-158194.471,-129373.506,-82904.542,-88389.482,-81173.936,-92919.063,-81731.031,-138510.274
3.676,09-22-2026 21:33:39:951,-158014.495,-128968.269,-54462.931,-59006.504,-52933.491,-63627.817,-53940.213,-112457.304
3.68,09-22-2026 21:33:39:955,-157968.138,-129504.934,-97125.348,-99214.789,-94509.702,-103710.574,-96817.475,-111170.737
3.684,09-22-2026 21:33:39:959,-158120.845,-130282.552,-154798.616,-157207.508,-152559.507,-161522.244,-154781.181,-136902.066
3.688,09-22-2026 21:33:39:963,-158249.01,-130140.171,-141367.855,-145608.964,-140008.198,-149959.91,-141282.784,-152019.221
3.692,09-22-2026 21:33:39:967,-158180.837,-129362.554,-82904.542,-88389.482,-81173.936,-92919.063,-81731.031,-138510.274
3.696,09-22-2026 21:33:39:971,-158003.587,-128957.317,-54462.931,-59006.504,-52933.491,-63627.817,-53940.213,-112457.304
3.7,09-22-2026 21:33:39:975,-157959.957,-129483.03,-97125.348,-99988.025,-94509.702,-103710.574,-96817.475,-111170.737
3.704,09-22-2026 21:33:39:979,-158114.989,-130268.783,-155147.079,-157552.127,-153122.101,-162084.39,-155340.869,-136902.825
3.708,09-22-2026 21:33:39:983,-158242.841,-130129.889,-141731.518,-145966.324,-139723.258,-150466.4,-140981.661,-152154.449
3.712,09-22-2026 21:33:39:987,-158180.077,-129360.632,-83334.366,-88809.695,-81398.884,-93150.984,-81949.363,-138525.339
3.716,09-22-2026 21:33:39:991,-158001.084,-128943.95,-54924.942,-59458.993,-53024.865,-63718.744,-54028.681,-112565.129
3.72,09-22-2026 21:33:39:995,-157954.592,-129467.473,-96749.928,-99623.111,-94797.727,-103219.909,-96308.571,-111267.118
3.724,09-22-2026 21:33:39:999,-158108.015,-130258.099,-155147.079,-157552.127,-152333.933,-161309.858,-154543.135,-136902.825
3.728,09-22-2026 21:33:40:003,-158238.191,-130119.205,-141731.518,-145966.324,-139723.258,-150466.4,-140981.661,-152154.449
3.732,09-22-2026 21:33:40:007,-158175.428,-129339.263,-83334.366,-88809.695,-81398.884,-93150.984,-81949.363,-138849.841
3.736,09-22-2026 21:33:40:011,-157998.76,-128933.266,-54924.942,-59458.993,-53024.865,-63718.744,-54028.681,-112565.129
3.74,09-22-2026 21:33:40:015,-157956.917,-129467.473,-97539.079,-99623.111,-94797.727,-103994.442,-97106.304,-111591.621
3.744,09-22-2026 21:33:40:019,-158112.664,-130258.099,-155147.079,-157552.127,-153122.101,-162084.39,-155340.869,-137551.831
3.748,09-22-2026 21:33:40:023,-158242.841,-130108.521,-141731.518,-145966.324,-139723.258,-150466.4,-140981.661,-152478.952
3.752,09-22-2026 21:33:40:027,-158180.077,-129339.263,-83334.366,-88809.695,-81398.884,-93150.984,-81949.363,-138849.841
3.756,09-22-2026 21:33:40:031,-158001.084,-128922.582,-54924.942,-59458.993,-53024.865,-63718.744,-54028.681,-112889.631
3.76,09-22-2026 21:33:40:035,-157959.242,-129467.473,-97539.079,-100395.498,-95585.894,-104768.974,-97106.304,-111591.621
3.764,09-22-2026 21:33:40:039,-158112.664,-130236.731,-155147.079,-157552.127,-153122.101,-162084.39,-155340.869,-137551.831
3.768,09-22-2026 21:33:40:043,-158240.516,-130097.837,-141731.518,-145966.324,-140511.425,-150466.4,-141779.395,-152478.952
3.772,09-22-2026 21:33:40:047,-158175.428,-129317.895,-83334.366,-88809.695,-81398.884,-93150.984,-81949.363,-138849.841
3.776,09-22-2026 21:33:40:051,-157998.76,-128922.582,-54924.942,-59458.993,-53024.865,-63718.744,-54028.681,-112889.631
3.78,09-22-2026 21:33:40:055,-157952.268,-129446.105,-97539.079,-100395.498,-95585.894,-103994.442,-97106.304,-111591.621
3.784,09-22-2026 21:33:40:059,-158108.015,-130236.731,-155147.079,-157552.127,-153122.101,-162084.39,-155340.869,-137551.831
3.788,09-22-2026 21:33:40:063,-158235.867,-130087.153,-141731.518,-145966.324,-140511.425,-151240.933,-141779.395,-152478.952
3.792,09-22-2026 21:33:40:067,-158170.779,-129317.895,-83334.366,-88809.695,-81398.884,-93150.984,-81949.363,-139174.344
3.796,09-22-2026 21:33:40:071,-157991.786,-128911.898,-54924.942,-59458.993,-53024.865,-63718.744,-54028.681,-113214.134
3.8,09-22-2026 21:33:40:075,-157949.943,-129446.105,-97539.079,-100395.498,-95585.894,-103994.442,-97106.304,-112240.626
3.804,09-22-2026 21:33:40:079,-158105.958,-130219.162,-155335.326,-157745.335,-153467.256,-162426.953,-155688.304,-138630.884
3.808,09-22-2026 21:33:40:083,-158230.815,-130076.782,-141914.444,-146153.497,-140870.171,-150821.704,-142141.27,-153181.199
3.812,09-22-2026 21:33:40:087,-158167.113,-129299.164,-82704.673,-88967.095,-81821.332,-93569.141,-82374.94,-138954.224
3.816,09-22-2026 21:33:40:091,-157986.198,-128893.927,-55073.447,-59601.105,-53477.89,-64169.176,-54483.986,-112440.316
3.82,09-22-2026 21:33:40:095,-157940.332,-129419.64,-96915.018,-99786.144,-95205.736,-104400.707,-96718.859,-112116.976
3.824,09-22-2026 21:33:40:099,-158093.218,-130208.21,-155335.326,-157745.335,-153467.256,-162426.953,-155688.304,-138307.543
3.828,09-22-2026 21:33:40:103,-158220.623,-130065.829,-141914.444,-146153.497,-140870.171,-150821.704,-142141.27,-153181.199
3.832,09-22-2026 21:33:40:107,-158154.372,-129288.212,-82704.673,-88967.095,-81821.332,-93569.141,-82374.94,-138630.884
3.836,09-22-2026 21:33:40:111,-157976.005,-128882.975,-55073.447,-59601.105,-53477.89,-64169.176,-54483.986,-112440.316
3.84,09-22-2026 21:33:40:115,-157932.688,-129419.64,-97704.482,-100558.934,-95205.736,-104400.707,-97515.744,-112116.976
3.844,09-22-2026 21:33:40:119,-158088.122,-130197.257,-155335.326,-157745.335,-153467.256,-162426.953,-155688.304,-138630.884
3.848,09-22-2026 21:33:40:123,-158212.979,-130054.877,-141914.444,-146153.497,-140870.171,-150821.704,-142141.27,-153181.199
3.852,09-22-2026 21:33:40:127,-158146.728,-129277.26,-82704.673,-88194.306,-81821.332,-93569.141,-82374.94,-138954.224
3.856,09-22-2026 21:33:40:131,-157965.813,-128872.022,-55073.447,-59601.105,-53477.89,-64169.176,-54483.986,-112763.657
3.86,09-22-2026 21:33:40:135,-157922.495,-129397.736,-97704.482,-100558.934,-95993.053,-105174.39,-97515.744,-112116.976
3.864,09-22-2026 21:33:40:139,-158075.381,-130175.353,-155335.326,-157745.335,-153467.256,-162426.953,-155688.304,-138954.224
3.868,09-22-2026 21:33:40:143,-158200.238,-130022.02,-141124.981,-145380.708,-140870.171,-150821.704,-142141.27,-153181.199
3.872,09-22-2026 21:33:40:147,-158131.439,-129244.403,-82704.673,-88194.306,-81821.332,-93569.141,-82374.94,-138954.224
3.876,09-22-2026 21:33:40:151,-157955.621,-128850.118,-55073.447,-59601.105,-53477.89,-64169.176,-54483.986,-112763.657
3.88,09-22-2026 21:33:40:155,-157909.755,-129375.831,-97704.482,-100558.934,-95993.053,-104400.707,-97515.744,-112116.976
3.884,09-22-2026 21:33:40:159,-158067.737,-130164.4,-155335.326,-157745.335,-153467.256,-162426.953,-155688.304,-138630.884
