PseudoTimeSec,PseudoTimestamp,UF-FP1,UF-FP2,UF-O1,UF-O2,UF-C3,UF-CZ,UF-FZ,UF-C4
0.004,09-22-2026 22:25:55:087,-119524.612,-83035.434,-22848.579,-33108.521,-71567.425,-54657.123,-66106.581,-81270.585
0.008,09-22-2026 22:25:55:091,-119628.548,-84152.351,-116027.458,-122442.186,-83774.159,-114229.484,-87938.692,-94798.487
0.012,09-22-2026 22:25:55:095,-119534.671,-83482.201,-73524.812,-83501.87,-81193.874,-98280.978,-84819.819,-95192.503
0.016,09-22-2026 22:25:55:099,-119440.793,-82717.995,-12222.917,-25473.166,-73353.776,-60755.081,-70958.161,-87049.495
0.02,09-22-2026 22:25:55:103,-119457.557,-82906.107,-22848.579,-33108.521,-71170.458,-54657.123,-65933.31,-81270.585
0.024,09-22-2026 22:25:55:107,-119554.787,-83787.883,-86602.549,-92664.298,-77422.688,-87023.209,-75983.012,-85736.106
0.028,09-22-2026 22:25:55:111,-119551.434,-84058.295,-116027.458,-122442.186,-83377.192,-113760.41,-87418.88,-94404.47
0.032,09-22-2026 22:25:55:115,-119460.91,-83423.416,-76794.246,-85792.477,-81193.874,-99688.199,-84993.089,-95323.842
0.036,09-22-2026 22:25:55:119,-119360.327,-82659.21,-14674.993,-30054.379,-73552.26,-63100.45,-71651.244,-87574.85
0.04,09-22-2026 22:25:55:123,-119380.444,-82812.051,-22848.579,-33108.521,-71170.458,-55126.197,-66106.581,-81664.602
0.044,09-22-2026 22:25:55:127,-119470.968,-83611.528,-80063.68,-85792.477,-76430.27,-83270.619,-74596.846,-85079.412
0.048,09-22-2026 22:25:55:131,-119477.674,-83917.211,-109488.59,-115570.365,-82087.05,-108600.6,-85339.631,-92959.743
0.052,09-22-2026 22:25:55:135,-119397.207,-83388.145,-78428.963,-87319.548,-80697.665,-98750.052,-84126.736,-94404.47
0.056,09-22-2026 22:25:55:139,-119310.036,-82694.481,-26935.372,-38453.271,-74246.952,-67791.187,-73037.41,-88100.205
0.06,09-22-2026 22:25:55:143,-119343.563,-82835.565,-30204.806,-39216.806,-71964.392,-59816.934,-67839.288,-82977.99
0.064,09-22-2026 22:25:55:147,-119434.088,-83564.5,-79246.322,-85792.477,-76727.995,-84677.84,-75463.2,-86130.123
0.068,09-22-2026 22:25:55:151,-119447.499,-83881.94,-108671.231,-114806.83,-82186.291,-108600.6,-85686.172,-93485.098
0.072,09-22-2026 22:25:55:155,-119367.033,-83423.416,-81698.398,-90373.691,-81293.116,-100626.347,-85166.36,-95455.181
0.07600001,09-22-2026 22:25:55:159,-119276.508,-82776.78,-35108.958,-45325.091,-75537.095,-72481.924,-75463.2,-90070.288
0.08000001,09-22-2026 22:25:55:163,-119296.625,-82894.35,-35926.316,-44561.555,-73453.018,-64507.671,-70784.89,-85473.428
0.08400001,09-22-2026 22:25:55:167,-119373.738,-83576.257,-81698.398,-88083.084,-77918.896,-87023.209,-77715.719,-88362.883
0.08800001,09-22-2026 22:25:55:171,-119383.796,-83928.968,-111123.307,-117097.436,-83277.951,-110945.968,-87765.421,-95586.52
0.09200001,09-22-2026 22:25:55:175,-119299.977,-83517.472,-87419.908,-95718.44,-82880.984,-104848.01,-87938.692,-97950.619
0.096,09-22-2026 22:25:55:179,-119202.747,-82894.35,-42465.185,-52196.911,-77621.171,-78110.809,-79101.885,-93353.759
0.1,09-22-2026 22:25:55:183,-119216.158,-82988.406,-41647.827,-49906.304,-75537.095,-69667.482,-74423.575,-89019.577
0.104,09-22-2026 22:25:55:187,-119295.909,-83652.432,-84300.364,-91066.64,-79715.53,-90987.291,-80910.23,-91600.623
0.108,09-22-2026 22:25:55:191,-119314.685,-83997.275,-113416.372,-119840.711,-85031.892,-113994.254,-90641.554,-98507.133
0.112,09-22-2026 22:25:55:195,-119242.712,-83588.908,-89364.018,-98413.211,-84476.451,-107755.078,-90778.615,-100647.178
0.116,09-22-2026 22:25:55:199,-119151.964,-82917.372,-41892.265,-52497.14,-78922.043,-79678.783,-81184.352,-95588.889
0.12,09-22-2026 22:25:55:203,-119175.433,-82962.746,-38094.525,-46987.211,-76224.187,-68370.276,-75564.855,-90238.776
0.124,09-22-2026 22:25:55:207,-119269.311,-83625.207,-81135.581,-87393.354,-80032.924,-88647.6,-81321.413,-92086.997
0.128,09-22-2026 22:25:55:211,-119305.297,-83997.275,-112150.459,-118616.282,-85349.287,-112824.409,-90915.676,-98701.683
0.132,09-22-2026 22:25:55:215,-119238.018,-83561.684,-88098.104,-96576.568,-84635.149,-106195.284,-90778.615,-100549.904
0.136,09-22-2026 22:25:55:219,-119153.529,-82862.923,-38727.482,-48823.854,-78683.997,-77339.092,-80773.169,-95005.24
0.14,09-22-2026 22:25:55:223,-119180.127,-82908.298,-34296.785,-43313.926,-75827.444,-65640.636,-74605.429,-89266.028
0.144,09-22-2026 22:25:55:227,-119274.005,-83561.684,-77337.84,-84332.282,-79477.484,-85917.96,-80087.865,-90919.699
0.148,09-22-2026 22:25:55:231,-119306.862,-83942.826,-109618.632,-115555.211,-84793.846,-110094.769,-89682.128,-97437.11
0.152,09-22-2026 22:25:55:235,-119234.889,-83525.384,-86199.234,-94739.925,-84079.708,-104245.541,-89545.067,-99285.331
0.156,09-22-2026 22:25:55:239,-119144.141,-82844.774,-38094.525,-48211.64,-78287.253,-76169.247,-79676.682,-93935.218
0.16,09-22-2026 22:25:55:243,-119161.352,-82862.923,-33030.872,-42089.497,-75272.003,-64470.791,-73508.942,-88293.28
0.164,09-22-2026 22:25:55:247,-119250.535,-83516.31,-74806.014,-81271.211,-78763.345,-83578.269,-78717.256,-89655.127
0.168,09-22-2026 22:25:55:251,-119284.957,-83915.601,-107719.762,-114330.782,-84079.708,-108534.975,-88311.519,-96172.538
0.172,09-22-2026 22:25:55:255,-119214.549,-83525.384,-86199.234,-94739.925,-83682.964,-103855.592,-88722.702,-98604.408
0.176,09-22-2026 22:25:55:259,-119120.672,-82853.849,-38727.482,-49436.068,-78207.904,-76559.195,-79402.561,-93740.668
0.18,09-22-2026 22:25:55:263,-119136.318,-82890.148,-33663.828,-42701.711,-75430.7,-64860.739,-73508.942,-88487.829
0.184,09-22-2026 22:25:55:267,-119227.066,-83570.759,-76704.884,-83720.068,-79160.089,-85138.063,-79128.439,-90336.05
0.188,09-22-2026 22:25:55:271,-119266.182,-83997.275,-111517.502,-117391.854,-84873.195,-110874.666,-89408.006,-97339.835
0.192,09-22-2026 22:25:55:275,-119203.597,-83616.133,-89996.974,-98413.211,-84714.497,-106585.232,-90230.371,-99966.255
0.196,09-22-2026 22:25:55:279,-119119.107,-82935.522,-41259.309,-51884.926,-79239.437,-78898.886,-80910.23,-95199.79
0.2,09-22-2026 22:25:55:283,-119144.141,-82953.672,-34929.742,-43926.14,-76224.187,-66420.533,-74742.49,-89752.402
0.204,09-22-2026 22:25:55:287,-119242.444,-83637.724,-78236.023,-84416.459,-80049.196,-86165.796,-80317.373,-91335.799
0.208,09-22-2026 22:25:55:291,-119286.7,-84099.914,-113784.774,-119897.842,-85794.489,-112651.764,-90700.205,-98311.466
0.212,09-22-2026 22:25:55:295,-119222.327,-83713.184,-92321.377,-101189.476,-85709.999,-108698.634,-91441.836,-101018.441
0.216,09-22-2026 22:25:55:299,-119133.814,-82996.319,-41345.81,-52160.657,-79964.707,-79840.789,-81800.634,-96125.063
0.22,09-22-2026 22:25:55:303,-119153.931,-82986.886,-33297.036,-42483.916,-76669.613,-66004.835,-75125.957,-90190.541
0.224,09-22-2026 22:25:55:307,-119249.149,-83666.022,-76223.83,-83126.227,-80218.176,-85375.17,-80317.373,-91335.799
0.228,09-22-2026 22:25:55:311,-119290.724,-84118.779,-113114.043,-119252.726,-85878.978,-111861.138,-90551.879,-98103.237
0.232,09-22-2026 22:25:55:315,-119226.351,-83722.616,-90979.915,-99899.244,-85625.51,-107908.008,-91145.184,-100601.983
0.236,09-22-2026 22:25:55:319,-119139.179,-83005.751,-40675.079,-50870.425,-79795.728,-78654.85,-81503.982,-95396.262
0.24,09-22-2026 22:25:55:323,-119161.978,-82977.454,-31955.574,-41193.684,-76331.654,-64818.897,-74532.652,-89357.625
0.244,09-22-2026 22:25:55:327,-119258.537,-83637.724,-74211.636,-80545.763,-79711.238,-83793.918,-79427.416,-90398.769
0.248,09-22-2026 22:25:55:331,-119301.453,-84099.914,-111101.849,-117317.378,-85372.041,-110279.886,-89661.922,-97062.093
0.252,09-22-2026 22:25:55:335,-119238.421,-83713.184,-90309.184,-98609.012,-85203.062,-106722.07,-90403.553,-99664.953
0.256,09-22-2026 22:25:55:339,-119147.226,-82977.454,-39333.616,-50225.309,-79288.79,-77864.224,-80614.025,-94563.346
0.26,09-22-2026 22:25:55:343,-119163.319,-82939.724,-29943.38,-39258.336,-75655.738,-63237.645,-73346.042,-88316.481
0.264,09-22-2026 22:25:55:347,-119254.514,-83609.427,-72870.174,-79255.531,-79035.321,-82212.667,-78389.132,-89357.625
0.268,09-22-2026 22:25:55:351,-119297.429,-84090.481,-111101.849,-117317.378,-84949.593,-109884.573,-88920.291,-96229.177
0.272,09-22-2026 22:25:55:355,-119231.715,-83703.751,-90979.915,-99254.128,-84865.103,-106722.07,-89810.248,-99040.267
0.276,09-22-2026 22:25:55:359,-119141.861,-82968.021,-38662.885,-49580.193,-78866.342,-77468.911,-80020.72,-94042.774
0.28,09-22-2026 22:25:55:363,-119157.954,-82920.859,-28601.918,-37968.104,-75233.29,-62447.019,-72604.412,-87795.909
0.284,09-22-2026 22:25:55:367,-119251.832,-83599.995,-72199.443,-78610.415,-78612.873,-81422.041,-77647.502,-88837.053
0.288,09-22-2026 22:25:55:371,-119298.77,-84109.346,-112443.312,-117962.494,-84780.614,-109884.573,-88623.639,-96020.948
0.292,09-22-2026 22:25:55:375,-119237.08,-83732.049,-91650.646,-100544.36,-84865.103,-107117.383,-89958.574,-99040.267
0.296,09-22-2026 22:25:55:379,-119147.226,-82977.454,-39333.616,-50225.309,-78866.342,-77864.224,-80020.72,-94042.774
0.3,09-22-2026 22:25:55:383,-119167.342,-82920.859,-28601.918,-37968.104,-75148.8,-62447.019,-72604.412,-87795.909
0.304,09-22-2026 22:25:55:387,-119266.003,-83613.048,-72365.069,-78770.274,-78569.377,-81672.514,-77655.235,-88766.869
0.308,09-22-2026 22:25:55:391,-119317.903,-84136.213,-113255.529,-119182.139,-84925.677,-110695.092,-88832.896,-96138.474
0.312,09-22-2026 22:25:55:395,-119258.314,-83757.753,-93540.486,-102058.468,-85112.627,-108242.48,-90429.704,-99282.247
0.316,09-22-2026 22:25:55:399,-119167.968,-83000.834,-40236.85,-51372.4,-79223.702,-78811.133,-80689.172,-94512.384
0.32,09-22-2026 22:25:55:403,-119183.346,-82934.047,-28553.862,-38358.41,-75391.227,-62869.154,-73024.49,-88224.839
0.324,09-22-2026 22:25:55:407,-119275.614,-83613.048,-72365.069,-78770.274,-78849.802,-81672.514,-77974.597,-89200.492
0.328,09-22-2026 22:25:55:411,-119325.592,-84147.344,-113985.716,-119867.086,-85299.577,-111103.861,-89311.938,-96572.098
0.332,09-22-2026 22:25:55:415,-119260.236,-83791.147,-95000.859,-103428.361,-85580.002,-109468.786,-91068.428,-99932.683
0.336,09-22-2026 22:25:55:419,-119162.201,-83023.096,-41697.224,-52742.294,-79691.077,-80037.439,-81487.576,-95271.226
0.34,09-22-2026 22:25:55:423,-119175.657,-82934.047,-28553.862,-37673.463,-75671.652,-63277.923,-73503.533,-88766.869
0.344,09-22-2026 22:25:55:427,-119269.847,-83601.917,-70904.695,-78085.328,-78943.277,-81263.746,-78134.278,-89417.304
0.348,09-22-2026 22:25:55:431,-119329.437,-84147.344,-113985.716,-119867.086,-85299.577,-110695.092,-89311.938,-96572.098
0.352,09-22-2026 22:25:55:435,-119277.536,-83780.016,-95000.859,-102743.414,-85580.002,-109060.017,-91068.428,-99715.871
0.356,09-22-2026 22:25:55:439,-119192.957,-82989.703,-40967.037,-51372.4,-79504.127,-79219.902,-81168.214,-94729.196
0.36,09-22-2026 22:25:55:443,-119212.18,-82878.391,-26363.301,-35618.622,-75204.277,-61642.848,-72864.809,-87899.621
0.364,09-22-2026 22:25:55:447,-119315.981,-83523.999,-67983.948,-74660.593,-78195.477,-79219.902,-77016.512,-88224.839
0.368,09-22-2026 22:25:55:451,-119379.415,-84069.426,-111064.969,-117127.298,-84458.302,-108651.249,-88034.491,-95054.414
0.372,09-22-2026 22:25:55:455,-119325.592,-83702.097,-92810.299,-101373.521,-84738.727,-107424.943,-89950.662,-98306.593
0.376,09-22-2026 22:25:55:459,-119233.324,-82900.653,-38046.29,-50002.506,-78662.852,-77584.827,-79890.767,-93428.325
0.38,09-22-2026 22:25:55:463,-119244.858,-82767.079,-21982.181,-32878.835,-74176.052,-59599.004,-71427.682,-86490.343
0.384,09-22-2026 22:25:55:467,-119342.893,-83423.818,-65793.388,-72605.753,-77167.252,-77176.059,-75419.703,-86815.561
0.388,09-22-2026 22:25:55:471,-119406.327,-84002.639,-110334.782,-116442.352,-83617.027,-107424.943,-86916.725,-93970.355
0.392,09-22-2026 22:25:55:475,-119356.348,-83657.573,-93540.486,-101373.521,-84177.877,-107016.174,-88992.576,-97547.751
0.396,09-22-2026 22:25:55:479,-119271.769,-82878.391,-38046.29,-50002.506,-78195.477,-77584.827,-79411.725,-92994.701
0.4,09-22-2026 22:25:55:483,-119285.225,-82733.686,-21251.994,-32878.835,-73708.677,-59190.236,-70788.958,-86165.126
0.404,09-22-2026 22:25:55:487,-119386.926,-83396.102,-64449.378,-71325.445,-76633.805,-76363.796,-74857.736,-86431.156
0.408,09-22-2026 22:25:55:491,-119454.741,-83979.751,-110425.128,-116234.927,-83186.443,-107079.116,-86412.962,-93718.719
0.412,09-22-2026 22:25:55:495,-119403.421,-83651.448,-94333.615,-102902.425,-83841.706,-107494.188,-88827.486,-97483.959
0.416,09-22-2026 22:25:55:499,-119311.779,-82861.091,-38396.452,-50975.835,-77944.333,-78024.084,-79341.853,-92989.962
0.42,09-22-2026 22:25:55:503,-119319.11,-82715.178,-20006.152,-32029.647,-73357.487,-58930.777,-70546.084,-86066.778
0.424,09-22-2026 22:25:55:507,-119408.92,-83371.783,-63683.115,-70623.734,-76196.963,-75533.652,-74340.337,-86309.697
0.428,09-22-2026 22:25:55:511,-119471.236,-83979.751,-110425.128,-116234.927,-82749.6,-107079.116,-86068.03,-93597.259
0.432,09-22-2026 22:25:55:515,-119414.418,-83663.608,-95099.878,-102902.425,-83514.075,-107494.188,-88827.486,-97362.5
0.436,09-22-2026 22:25:55:519,-119319.11,-82861.091,-37630.19,-50975.835,-77507.49,-78439.156,-79169.387,-92868.503
0.44,09-22-2026 22:25:55:523,-119317.278,-82666.541,-17707.365,-30626.226,-72702.223,-58100.633,-70028.686,-85580.94
0.444,09-22-2026 22:25:55:527,-119407.087,-83310.987,-61384.328,-68518.602,-75214.067,-73873.365,-73478.007,-85459.481
0.448,09-22-2026 22:25:55:531,-119469.404,-83931.113,-108892.603,-114831.506,-81766.705,-105418.829,-85033.233,-92504.125
0.452,09-22-2026 22:25:55:535,-119408.92,-83602.811,-94333.615,-102200.714,-82531.179,-106664.044,-87792.69,-96269.366
0.456,09-22-2026 22:25:55:539,-119306.281,-82788.135,-35331.402,-49572.414,-76415.384,-77193.94,-78134.591,-91532.45
0.46,09-22-2026 22:25:55:543,-119293.451,-82569.266,-13876.052,-27819.383,-71391.695,-56025.273,-68476.491,-84001.968
0.464,09-22-2026 22:25:55:547,-119374.096,-83189.393,-58319.278,-65010.049,-73794.329,-71382.933,-71753.347,-83637.59
0.468,09-22-2026 22:25:55:551,-119432.747,-83809.52,-106593.815,-112024.663,-80346.966,-102928.397,-83308.573,-90439.315
0.472,09-22-2026 22:25:55:555,-119368.597,-83493.377,-92034.828,-100095.582,-81111.441,-104588.685,-86068.03,-94326.016
0.476,09-22-2026 22:25:55:559,-119265.958,-82678.7,-34565.14,-48870.703,-75104.857,-75533.652,-76582.396,-89710.559
0.48,09-22-2026 22:25:55:563,-119251.295,-82459.832,-13109.79,-27117.673,-70081.168,-54780.058,-66924.297,-82301.537
0.484,09-22-2026 22:25:55:567,-119328.275,-83067.8,-56020.49,-62904.917,-72483.802,-69722.646,-70028.686,-82058.618
0.488,09-22-2026 22:25:55:571,-119392.424,-83724.404,-105061.29,-110621.242,-79145.65,-101683.182,-81756.378,-89103.262
0.492,09-22-2026 22:25:55:575,-119339.272,-83444.739,-92801.09,-100797.293,-80346.966,-104173.613,-85205.699,-93354.341
0.496,09-22-2026 22:25:55:579,-119247.63,-82666.541,-37630.19,-50975.835,-74777.225,-76778.868,-76237.464,-89346.181
0.5,09-22-2026 22:25:55:583,-119242.131,-82435.513,-14642.315,-28521.094,-69971.957,-56025.273,-66924.297,-82301.537
0.504,09-22-2026 22:25:55:587,-119328.588,-83028.908,-56424.878,-63176.937,-72250.449,-70210.719,-69940.486,-81914.897
0.508,09-22-2026 22:25:55:591,-119393.497,-83664.055,-104059.44,-109906.567,-78868.533,-101174.143,-81462.453,-88739.331
0.512,09-22-2026 22:25:55:595,-119338.422,-83406.026,-93704.101,-101065.827,-80137.754,-104746.846,-85043.604,-92954.423
0.516,09-22-2026 22:25:55:599,-119236.141,-82641.865,-39856.334,-52441.752,-74698.234,-77753.091,-76324.278,-89140.769
0.52,09-22-2026 22:25:55:603,-119218.438,-82413.609,-16384.231,-29708.419,-69893.324,-56713.841,-66982.143,-82215.975
0.524,09-22-2026 22:25:55:607,-119291.215,-82989.211,-55044.166,-62545.456,-72069.132,-69813.752,-69473.379,-81714.178
0.528,09-22-2026 22:25:55:611,-119350.224,-83644.206,-103369.084,-109275.086,-78505.898,-100777.176,-80995.346,-88237.535
0.532,09-22-2026 22:25:55:615,-119291.215,-83396.102,-93704.101,-101697.308,-79956.437,-104746.846,-84887.902,-92251.908
0.536,09-22-2026 22:25:55:619,-119194.835,-82651.789,-42617.758,-54336.197,-74879.551,-78943.992,-76635.683,-89241.128
0.54,09-22-2026 22:25:55:623,-119183.033,-82403.685,-18455.299,-30339.9,-69983.982,-57507.775,-67137.845,-82617.412
0.544,09-22-2026 22:25:55:627,-119267.612,-82969.362,-55734.522,-62545.456,-72159.791,-70210.719,-69784.784,-81714.178
0.548,09-22-2026 22:25:55:631,-119342.356,-83614.434,-103369.084,-109275.086,-78687.215,-100777.176,-81151.048,-87836.097
0.552,09-22-2026 22:25:55:635,-119301.05,-83396.102,-95084.813,-102960.271,-80228.413,-105540.78,-85199.307,-92452.627
0.5560001,09-22-2026 22:25:55:639,-119216.471,-82661.713,-45379.182,-56230.641,-75332.844,-80134.893,-77414.194,-89843.284
0.56,09-22-2026 22:25:55:643,-119214.504,-82403.685,-21907.079,-32234.345,-70527.934,-58698.676,-68072.059,-83520.646
0.564,09-22-2026 22:25:55:647,-119303.017,-82959.438,-55734.522,-63176.937,-72613.084,-71004.653,-70407.593,-82517.053
0.568,09-22-2026 22:25:55:651,-119379.728,-83614.434,-103369.084,-109275.086,-79049.85,-101174.143,-81618.155,-88638.972
0.572,09-22-2026 22:25:55:655,-119340.389,-83406.026,-96465.525,-104223.234,-80772.365,-106334.714,-85822.116,-93355.861
0.576,09-22-2026 22:25:55:659,-119257.777,-82691.486,-48140.606,-58756.567,-76058.114,-81722.761,-78348.408,-91047.596
0.58,09-22-2026 22:25:55:663,-119255.81,-82423.533,-23978.147,-33497.308,-71253.204,-60286.544,-69161.975,-84825.317
0.5840001,09-22-2026 22:25:55:667,-119346.29,-82969.362,-55734.522,-63176.937,-73157.036,-71798.586,-71186.104,-83821.724
0.588,09-22-2026 22:25:55:671,-119428.902,-83624.358,-103369.084,-109275.086,-79593.802,-101571.11,-82396.666,-89642.565
0.592,09-22-2026 22:25:55:675,-119401.365,-83445.723,-97846.237,-105486.197,-81406.976,-107128.648,-86756.329,-94459.813
0.596,09-22-2026 22:25:55:679,-119328.588,-82731.182,-50902.03,-60651.012,-76964.7,-83707.596,-79749.728,-92251.908
0.6,09-22-2026 22:25:55:683,-119332.521,-82453.305,-25358.859,-35391.752,-72250.449,-61874.412,-70563.295,-86230.348
0.604,09-22-2026 22:25:55:687,-119428.41,-82988.719,-56806.154,-63978.024,-74007.431,-72743.752,-72393.679,-85559.08
0.608,09-22-2026 22:25:55:691,-119521.751,-83645.413,-104387.251,-110273.449,-80285.946,-102465.85,-83391.81,-91826.286
0.612,09-22-2026 22:25:55:695,-119498.416,-83483.766,-99443.76,-106757.341,-82283.656,-108562.691,-87974.365,-96612.152
0.6160001,09-22-2026 22:25:55:699,-119428.41,-82786.659,-53098.536,-63392.006,-78002.85,-85318.486,-81100.533,-94105.27
0.62,09-22-2026 22:25:55:703,-119432.3,-82493.673,-27145.21,-37021.194,-73246.398,-63598.491,-72088.176,-87610.166
0.624,09-22-2026 22:25:55:707,-119529.53,-83008.925,-57424.09,-64564.042,-74863.592,-73505.857,-73768.446,-86698.572
0.628,09-22-2026 22:25:55:711,-119622.871,-83685.825,-105005.187,-110859.467,-81142.107,-103227.955,-84461.073,-92965.778
0.632,09-22-2026 22:25:55:715,-119599.535,-83534.28,-101297.569,-108515.395,-83234.946,-110086.901,-89196.38,-97865.593
0.636,09-22-2026 22:25:55:719,-119537.308,-82847.277,-54952.345,-65150.06,-79049.269,-87223.749,-82628.051,-95358.711
0.64,09-22-2026 22:25:55:723,-119537.308,-82544.188,-27763.146,-38193.23,-74197.689,-64741.649,-73462.942,-88977.556
0.6440001,09-22-2026 22:25:55:727,-119634.538,-83059.44,-57424.09,-65150.06,-75719.753,-74267.962,-74837.708,-87838.064
0.648,09-22-2026 22:25:55:731,-119723.99,-83736.34,-105623.124,-111445.485,-81998.269,-103990.061,-85530.336,-93991.321
0.652,09-22-2026 22:25:55:735,-119704.544,-83594.898,-102533.442,-110273.449,-84186.236,-111230.059,-90418.394,-99005.085
0.656,09-22-2026 22:25:55:739,-119638.427,-82907.895,-56188.218,-66322.096,-80000.559,-88366.906,-83850.066,-96498.203
0.66,09-22-2026 22:25:55:743,-119642.317,-82574.497,-28381.083,-38193.23,-74958.721,-65503.754,-74532.205,-89889.15
0.664,09-22-2026 22:25:55:747,-119739.547,-83079.646,-57424.09,-64564.042,-76385.656,-74649.015,-75601.468,-88635.709
0.668,09-22-2026 22:25:55:751,-119832.888,-83766.649,-105623.124,-111445.485,-82569.043,-103990.061,-86141.343,-94675.016
0.6720001,09-22-2026 22:25:55:755,-119813.442,-83635.31,-103151.378,-110859.467,-84852.139,-111611.111,-91182.153,-99574.831
0.6760001,09-22-2026 22:25:55:759,-119751.214,-82938.204,-57424.09,-67494.132,-80666.462,-89129.012,-84613.825,-97181.898
0.68,09-22-2026 22:25:55:763,-119747.325,-82594.703,-28381.083,-38193.23,-75529.495,-65503.754,-74990.46,-90458.896
0.684,09-22-2026 22:25:55:767,-119840.666,-83089.749,-56806.154,-63978.024,-76861.301,-74267.962,-76059.723,-89091.505
0.688,09-22-2026 22:25:55:771,-119922.339,-83776.752,-105623.124,-111445.485,-83044.688,-103990.061,-86446.847,-95016.863
0.692,09-22-2026 22:25:55:775,-119899.004,-83665.619,-103769.315,-111445.485,-85327.784,-111992.164,-91487.657,-100030.628
0.696,09-22-2026 22:25:55:779,-119821.22,-82968.513,-58042.027,-68080.15,-81237.236,-89891.117,-85072.081,-97751.644
0.7,09-22-2026 22:25:55:783,-119813.442,-82614.909,-28381.083,-38193.23,-76005.14,-65884.807,-75448.716,-91028.642
0.7040001,09-22-2026 22:25:55:787,-119888.901,-83089.078,-55687.27,-63648.068,-77160.904,-73879.221,-76169.47,-89508.678
0.708,09-22-2026 22:25:55:791,-119967.356,-83803.217,-105522.854,-111148.207,-83331.908,-103737.843,-86591.731,-95385.399
0.712,09-22-2026 22:25:55:795,-119934.23,-83698.476,-104907.6,-112335.71,-85867.937,-112584.843,-91936.48,-100576.502
0.716,09-22-2026 22:25:55:799,-119852.289,-83012.904,-59994.049,-70179.337,-81810.29,-91204.595,-85790.019,-98617.595
0.72,09-22-2026 22:25:55:803,-119838.341,-82651.074,-29231.343,-39304.246,-76653.698,-67243.971,-76169.47,-92055.257
0.724,09-22-2026 22:25:55:807,-119918.54,-83127.166,-56917.778,-64241.819,-77752.644,-74985.096,-76837.564,-90488.132
0.728,09-22-2026 22:25:55:811,-120002.224,-83841.304,-106753.362,-112335.71,-84008.182,-104475.093,-87393.443,-96364.852
0.7320001,09-22-2026 22:25:55:815,-119974.329,-83746.086,-106753.362,-114116.965,-86628.745,-114059.343,-92871.811,-101653.901
0.7360001,09-22-2026 22:25:55:819,-119895.875,-83060.513,-61839.811,-71366.84,-82655.633,-92679.094,-86725.35,-99597.049
0.74,09-22-2026 22:25:55:823,-119876.697,-82679.639,-29846.597,-39897.998,-77329.973,-67981.221,-76971.182,-92936.765
0.744,09-22-2026 22:25:55:827,-119951.665,-83155.731,-56302.524,-64241.819,-78259.85,-74985.096,-77372.039,-91173.749
0.748,09-22-2026 22:25:55:831,-120031.863,-83860.348,-106138.108,-111741.958,-84430.854,-104475.093,-87660.681,-96756.634
0.752,09-22-2026 22:25:55:835,-119998.738,-83784.173,-106753.362,-114116.965,-87051.417,-114059.343,-93139.049,-101947.737
0.756,09-22-2026 22:25:55:839,-119915.053,-83098.6,-62455.066,-71960.592,-83078.305,-93047.719,-87126.206,-99988.83
0.7600001,09-22-2026 22:25:55:843,-119888.901,-82689.161,-29231.343,-39304.246,-77583.576,-67981.221,-77104.801,-93132.656
0.7640001,09-22-2026 22:25:55:847,-119963.869,-83146.209,-55072.016,-63054.316,-78428.919,-74616.471,-77238.42,-91075.804
0.768,09-22-2026 22:25:55:851,-120044.067,-83860.348,-105522.854,-111148.207,-84515.388,-103737.843,-87393.443,-96658.688
0.772,09-22-2026 22:25:55:855,-120014.428,-83784.173,-106753.362,-114116.965,-87220.485,-114059.343,-93139.049,-101947.737
0.776,09-22-2026 22:25:55:859,-119932.487,-83098.6,-62455.066,-72554.344,-83247.373,-93047.719,-87126.206,-99988.83
0.78,09-22-2026 22:25:55:863,-119906.335,-82679.639,-29231.343,-39304.246,-77668.11,-67612.596,-76837.564,-93034.711
0.784,09-22-2026 22:25:55:867,-119979.56,-83136.688,-54456.762,-61866.812,-78428.919,-73879.221,-76837.564,-90977.858
0.788,09-22-2026 22:25:55:871,-120059.758,-83860.348,-104907.6,-110554.455,-84599.922,-103369.219,-87126.206,-96462.798
0.7920001,09-22-2026 22:25:55:875,-120031.863,-83803.217,-107368.616,-114710.717,-87389.554,-114059.343,-93139.049,-101947.737
0.7960001,09-22-2026 22:25:55:879,-119946.434,-83117.644,-63685.574,-73148.095,-83585.511,-93416.344,-87259.825,-100184.721
0.8,09-22-2026 22:25:55:883,-119918.54,-82698.683,-29231.343,-39304.246,-77837.178,-67612.596,-76837.564,-93230.601
0.804,09-22-2026 22:25:55:887,-119987.964,-83137.761,-53755.454,-61089.955,-78467.453,-73757.091,-76806.361,-91102.179
0.808,09-22-2026 22:25:55:891,-120070.934,-83878.542,-104848.591,-111015.84,-84699.119,-103352.41,-87164.248,-96646.306
0.812,09-22-2026 22:25:55:895,-120045.184,-83827.804,-108123.792,-115439.652,-87723.31,-114645.361,-93318.935,-102190.432
0.816,09-22-2026 22:25:55:899,-119962.215,-83158.056,-64236.097,-74361.393,-83874.34,-94395.932,-87614.591,-100484.547
0.8200001,09-22-2026 22:25:55:903,-119930.744,-82721.705,-29518.965,-39602.866,-78192.526,-68305.322,-77106.589,-93554.389
0.8240001,09-22-2026 22:25:55:907,-120005.13,-83158.056,-53755.454,-61089.955,-78742.379,-73757.091,-76956.475,-91315.414
0.8280001,09-22-2026 22:25:55:911,-120090.961,-83898.837,-104848.591,-111015.84,-84974.046,-103352.41,-87314.363,-96859.541
0.832,09-22-2026 22:25:55:915,-120068.073,-83868.394,-109433.873,-116703.599,-87998.237,-115424.185,-93619.164,-102510.286
0.836,09-22-2026 22:25:55:919,-119987.964,-83188.499,-65546.178,-75625.339,-84332.551,-95174.756,-88064.934,-100911.018
0.84,09-22-2026 22:25:55:923,-119962.215,-82742.001,-29518.965,-39602.866,-78559.095,-68694.734,-77707.047,-93980.86
0.844,09-22-2026 22:25:55:927,-120039.462,-83178.351,-53100.413,-61089.955,-79017.306,-73757.091,-77256.704,-91635.268
0.848,09-22-2026 22:25:55:931,-120133.876,-83929.281,-105503.631,-111015.84,-85340.614,-103741.822,-87614.591,-97179.395
0.8520001,09-22-2026 22:25:55:935,-120119.571,-83908.985,-110743.953,-117967.545,-88548.09,-116203.009,-94219.621,-103043.375
0.8560001,09-22-2026 22:25:55:939,-120048.046,-83239.237,-67511.298,-76889.286,-84974.046,-96342.992,-88965.62,-101657.343
0.86,09-22-2026 22:25:55:943,-120025.157,-82782.591,-30829.046,-40866.812,-79200.59,-69862.97,-78457.618,-94727.185
0.864,09-22-2026 22:25:55:947,-120108.127,-83208.794,-53755.454,-61721.928,-79658.801,-74535.915,-78007.275,-92381.593
0.868,09-22-2026 22:25:55:951,-120208.263,-83959.724,-105503.631,-111647.813,-85890.467,-104131.234,-88215.049,-97819.102
0.872,09-22-2026 22:25:55:955,-120196.819,-83959.724,-112054.034,-119231.492,-89189.585,-116981.833,-95120.307,-103789.7
0.876,09-22-2026 22:25:55:959,-120128.154,-83300.124,-69476.419,-79417.179,-85798.825,-97900.641,-90016.42,-102616.903
0.8800001,09-22-2026 22:25:55:963,-120108.127,-82843.477,-32139.126,-42762.732,-80025.37,-71420.618,-79658.533,-95899.981
0.8840001,09-22-2026 22:25:55:967,-120191.097,-83259.533,-54410.494,-62353.902,-80391.938,-75704.151,-79058.075,-93341.153
0.8880001,09-22-2026 22:25:55:971,-120291.233,-84000.314,-106158.672,-111647.813,-86531.962,-104910.058,-89115.735,-98778.662
0.892,09-22-2026 22:25:55:975,-120288.371,-84010.462,-112709.074,-119863.465,-89831.08,-117760.657,-95870.879,-104642.642
0.896,09-22-2026 22:25:55:979,-120228.29,-83391.453,-72751.62,-81945.071,-86715.247,-99847.701,-91367.449,-103789.7
0.9,09-22-2026 22:25:55:983,-120208.263,-82924.659,-35414.327,-45290.625,-81216.718,-73757.091,-81459.904,-97392.63
0.904,09-22-2026 22:25:55:987,-120296.239,-83320.687,-56234.62,-63809.045,-81478.591,-77112.803,-80702.717,-94954.278
0.9080001,09-22-2026 22:25:55:991,-120409.25,-84056.06,-106073.288,-111792.876,-87262.641,-105236.662,-90211.462,-99926.558
0.9120001,09-22-2026 22:25:55:995,-120423.376,-84098.081,-114582.329,-121740.743,-90791.892,-118947.043,-97226.11,-105871.675
0.9160001,09-22-2026 22:25:55:999,-120373.934,-83488.772,-75683.856,-84875.117,-87948.884,-102424.276,-93017.321,-105223.117
0.92,09-22-2026 22:25:56:003,-120366.871,-83026.538,-39216.538,-49179.828,-82556.973,-76761.255,-83352.695,-99061.814
0.924,09-22-2026 22:25:56:007,-120465.755,-83394.224,-57450.197,-65564.551,-82753.042,-79222.093,-82417.409,-96467.581
0.928,09-22-2026 22:25:56:011,-120599.955,-84129.597,-106681.076,-112378.044,-88439.058,-106642.855,-91770.272,-101223.675
0.932,09-22-2026 22:25:56:015,-120628.207,-84182.123,-115797.906,-122911.08,-91968.309,-120704.784,-98784.92,-107060.699
0.936,09-22-2026 22:25:56:019,-120592.892,-83604.331,-78722.799,-88386.129,-89419.405,-104533.566,-95043.775,-106628.326
0.9400001,09-22-2026 22:25:56:023,-120599.955,-83131.591,-41647.693,-51520.503,-84125.529,-79222.093,-85535.03,-100683.209
0.9440001,09-22-2026 22:25:56:027,-120712.965,-83488.772,-58665.774,-66734.888,-84125.529,-80979.834,-84132.1,-97980.883
0.9480001,09-22-2026 22:25:56:031,-120840.102,-84203.134,-106073.288,-112378.044,-89615.475,-107345.951,-93017.321,-102412.698
0.952,09-22-2026 22:25:56:035,-120875.418,-84276.671,-116405.695,-123496.249,-93144.726,-121407.881,-100031.969,-108141.629
0.956,09-22-2026 22:25:56:039,-120847.165,-83719.889,-81153.954,-90141.635,-90791.892,-106291.307,-96446.704,-107817.35
0.96,09-22-2026 22:25:56:043,-120840.102,-83236.645,-43471.058,-53276.009,-85498.015,-80628.285,-86937.959,-101980.326
0.964,09-22-2026 22:25:56:047,-120946.049,-83572.815,-59273.563,-67320.057,-85301.946,-81682.93,-85379.149,-99061.814
0.9680001,09-22-2026 22:25:56:051,-121059.06,-84266.166,-105465.499,-111792.876,-90497.788,-107345.951,-93796.726,-103169.349
0.9720001,09-22-2026 22:25:56:055,-121080.249,-84350.209,-116405.695,-123496.249,-93929.004,-121407.881,-100499.612,-108682.094
0.9760001,09-22-2026 22:25:56:059,-121037.87,-83793.427,-81153.954,-90726.804,-91576.17,-106642.855,-97070.229,-108357.815
0.98,09-22-2026 22:25:56:063,-121016.681,-83299.677,-43471.058,-53861.177,-86184.259,-80979.834,-87561.484,-102412.698
0.984,09-22-2026 22:25:56:067,-121094.375,-83593.826,-57450.197,-65564.551,-85694.085,-80979.834,-85379.149,-99278
0.988,09-22-2026 22:25:56:071,-121193.26,-84276.671,-102426.556,-108867.032,-90497.788,-105588.21,-93329.083,-102953.163
0.992,09-22-2026 22:25:56:075,-121193.26,-84360.714,-114582.329,-121740.743,-93830.969,-120001.688,-99876.088,-108249.722
0.9960001,09-22-2026 22:25:56:079,-121136.754,-83824.943,-81153.954,-90141.635,-91478.135,-105939.759,-96602.586,-107925.443
1,09-22-2026 22:25:56:083,-121101.439,-83320.687,-42863.27,-53276.009,-86086.224,-80276.737,-86937.959,-102088.419
1.004,09-22-2026 22:25:56:087,-121158.793,-83590.339,-55190.123,-63918.971,-85245.217,-79446.37,-84473.322,-98811.206
1.008,09-22-2026 22:25:56:091,-121247.127,-84246.273,-99501.294,-106030.462,-89773.457,-103292.954,-92073.63,-102224.854
1.012,09-22-2026 22:25:56:095,-121243.73,-84344.174,-111999.316,-119156.122,-92993.539,-117808.267,-98565.56,-107293.604
1.016,09-22-2026 22:25:56:099,-121172.383,-83815.51,-80186.168,-89076.485,-90679.105,-104675.365,-95557.105,-106983.272
1.02,09-22-2026 22:25:56:103,-121124.818,-83296.637,-42124.008,-51887.116,-85245.217,-79446.37,-85898.38,-101190.415
1.024,09-22-2026 22:25:56:107,-121172.383,-83541.388,-52917.755,-61184.458,-84138.314,-77718.357,-83206.604,-97776.767
1.028,09-22-2026 22:25:56:111,-121247.127,-84187.533,-96092.742,-102749.047,-88264.044,-100528.133,-90173.553,-100880.084
1.032,09-22-2026 22:25:56:115,-121236.935,-84295.223,-109726.949,-116421.609,-91383.498,-115389.048,-96823.823,-105845.389
1.036,09-22-2026 22:25:56:119,-121158.793,-83776.35,-78481.892,-87982.68,-88968.437,-102947.352,-93815.368,-105638.502
1.04,09-22-2026 22:25:56:123,-121094.241,-83257.476,-40987.824,-50793.311,-83534.549,-78063.959,-84314.982,-99949.089
1.044,09-22-2026 22:25:56:127,-121131.613,-83482.648,-51213.479,-59543.751,-82427.646,-75990.343,-81464.867,-96431.997
1.048,09-22-2026 22:25:56:131,-121199.563,-84109.212,-93252.283,-100014.535,-86553.375,-98454.517,-88273.476,-99328.425
1.052,09-22-2026 22:25:56:135,-121182.575,-84226.693,-107454.581,-114780.902,-89572.202,-113315.432,-94923.746,-104293.731
1.056,09-22-2026 22:25:56:139,-121097.639,-83727.4,-77913.8,-86888.875,-87358.396,-101564.941,-92231.97,-104190.287
1.06,09-22-2026 22:25:56:143,-121029.689,-83208.526,-40987.824,-50793.311,-82125.763,-77372.754,-82889.924,-98707.762
1.064,09-22-2026 22:25:56:147,-121053.472,-83423.908,-50077.295,-58449.946,-81119.487,-74953.535,-79881.469,-95294.114
1.068,09-22-2026 22:25:56:151,-121118.024,-84040.682,-90979.915,-97826.925,-85245.217,-96726.504,-86690.079,-98087.099
1.072,09-22-2026 22:25:56:155,-121101.036,-84177.743,-106318.397,-113140.194,-88465.299,-111933.021,-93657.028,-103052.405
1.076,09-22-2026 22:25:56:159,-121009.305,-83688.239,-77913.8,-86888.875,-86452.748,-100873.736,-91123.592,-103155.849
1.08,09-22-2026 22:25:56:163,-120927.765,-83159.576,-40419.732,-50246.409,-81320.743,-76681.549,-81623.206,-97673.323
1.084,09-22-2026 22:25:56:167,-120948.15,-83365.167,-48373.02,-56809.238,-80213.839,-73916.727,-78456.411,-94156.232
1.088,09-22-2026 22:25:56:171,-121009.305,-83972.151,-89275.639,-95639.315,-84339.569,-94998.49,-85106.681,-96845.772
1.092,09-22-2026 22:25:56:175,-120988.92,-84109.212,-104614.121,-112046.389,-87660.278,-110550.61,-92231.97,-101811.078
1.096,09-22-2026 22:25:56:179,-120897.188,-83619.709,-76777.616,-85795.07,-85647.727,-99836.928,-89698.534,-101811.078
1.1,09-22-2026 22:25:56:183,-120815.649,-83100.835,-39851.64,-49699.506,-80515.722,-75644.741,-80198.149,-96431.997
1.104,09-22-2026 22:25:56:187,-120835.632,-83277.37,-46450.144,-55027.581,-79336.042,-72108.65,-76633.403,-92680.123
1.108,09-22-2026 22:25:56:191,-120902.91,-83889.629,-86646.403,-93507.227,-83490.069,-93243.029,-83388.547,-95334.795
1.112,09-22-2026 22:25:56:195,-120893.299,-84033.127,-103260.857,-110438.271,-86925.13,-109093.813,-90584.244,-100337.83
1.116,09-22-2026 22:25:56:199,-120808.72,-83564.366,-76463.351,-85298.235,-85087.771,-99187.073,-88381.48,-100542.036
1.12,09-22-2026 22:25:56:203,-120731.83,-83038.206,-38946.842,-48357.776,-79895.238,-74750.447,-78836.167,-95130.589
1.124,09-22-2026 22:25:56:207,-120754.897,-83210.404,-44842.293,-53488.395,-78696.961,-70787.751,-75164.893,-91352.787
1.128,09-22-2026 22:25:56:211,-120826.02,-83822.663,-85574.503,-91968.041,-82850.988,-91922.13,-81920.037,-94007.459
1.132,09-22-2026 22:25:56:215,-120822.176,-83975.727,-102724.907,-109925.209,-86445.819,-108103.139,-89409.437,-99214.7
1.136,09-22-2026 22:25:56:219,-120745.286,-83516.533,-75927.401,-85298.235,-84688.346,-98526.624,-87353.523,-99521.008
1.14,09-22-2026 22:25:56:223,-120674.163,-82971.24,-37874.942,-47844.714,-79415.927,-74089.998,-77808.211,-94007.459
1.144,09-22-2026 22:25:56:227,-120704.919,-83143.438,-43770.393,-51949.209,-78057.88,-69466.852,-73990.086,-90229.656
1.148,09-22-2026 22:25:56:231,-120785.653,-83755.697,-83966.653,-90428.855,-82211.907,-90601.232,-80598.379,-92884.328
1.152,09-22-2026 22:25:56:235,-120791.42,-83937.461,-102188.957,-109412.147,-85966.508,-107442.69,-88234.629,-98193.672
1.156,09-22-2026 22:25:56:239,-120722.219,-83478.267,-76463.351,-85298.235,-84288.92,-98196.399,-86472.417,-98602.083
1.16,09-22-2026 22:25:56:243,-120658.785,-82932.974,-37338.991,-47331.652,-79016.501,-73429.549,-77073.956,-93190.636
1.164,09-22-2026 22:25:56:247,-120693.385,-83095.605,-42162.543,-50923.085,-77578.569,-68476.178,-73108.98,-89208.628
1.168,09-22-2026 22:25:56:251,-120777.964,-83707.864,-82358.802,-89402.731,-81572.826,-89280.333,-79570.422,-91761.198
1.172,09-22-2026 22:25:56:255,-120787.575,-83899.195,-101653.007,-108386.023,-85327.427,-106452.016,-87206.672,-96968.439
1.176,09-22-2026 22:25:56:259,-120727.986,-83440.001,-75927.401,-84785.174,-83729.724,-97535.95,-85591.312,-97376.85
1.18,09-22-2026 22:25:56:263,-120670.318,-82875.575,-36267.091,-46305.528,-78377.42,-72438.875,-76045.999,-91761.198
1.184,09-22-2026 22:25:56:267,-120712.608,-83019.073,-40018.742,-48870.838,-76779.717,-67155.28,-71934.172,-87574.984
1.188,09-22-2026 22:25:56:271,-120799.109,-83631.332,-80215.002,-86837.421,-80694.089,-87298.985,-78101.913,-89923.348
1.192,09-22-2026 22:25:56:275,-120816.409,-83841.796,-100581.107,-107359.899,-84528.575,-105131.117,-86031.864,-95232.692
1.196,09-22-2026 22:25:56:279,-120758.742,-83392.168,-74855.5,-83759.05,-83010.758,-96545.276,-84563.355,-95641.103
1.2,09-22-2026 22:25:56:283,-120704.919,-82818.175,-35195.191,-45279.404,-77658.454,-71448.201,-75018.042,-90025.451
1.204,09-22-2026 22:25:56:287,-120744.436,-82951.392,-37988.22,-46876.168,-75844.52,-65498.3,-70651.182,-85683.58
1.208,09-22-2026 22:25:56:291,-120829.552,-83571.429,-78888.56,-85226.486,-79763.675,-86049.835,-76876.5,-87999.801
1.212,09-22-2026 22:25:56:295,-120841.711,-83792.264,-99611.399,-106474.636,-83682.83,-104281.036,-84880.481,-93318.533
1.216,09-22-2026 22:25:56:299,-120786.994,-83350.594,-74525.857,-83671.744,-82257.683,-95662.65,-83610.008,-93919.035
1.22,09-22-2026 22:25:56:303,-120738.357,-82756.037,-34170.855,-44284.93,-76913.381,-70470.446,-74081.46,-88342.945
1.224,09-22-2026 22:25:56:307,-120783.954,-82891.936,-36897.544,-45321.425,-75131.947,-64172.395,-69634.803,-84053.646
1.228,09-22-2026 22:25:56:311,-120872.11,-83520.467,-77252.546,-84189.991,-78979.844,-84723.93,-75860.122,-86455.653
1.232,09-22-2026 22:25:56:315,-120887.309,-83758.29,-99066.061,-105956.388,-83041.514,-103618.083,-84118.197,-91945.957
1.236,09-22-2026 22:25:56:319,-120835.632,-83308.126,-74525.857,-83671.744,-81687.624,-95331.174,-82974.772,-92632.245
1.24,09-22-2026 22:25:56:323,-120793.074,-82722.063,-33625.517,-43766.683,-76414.579,-69807.493,-73573.27,-87227.727
1.244,09-22-2026 22:25:56:327,-120841.711,-82840.974,-35806.869,-44284.93,-74633.145,-63509.442,-69126.614,-83110
1.248,09-22-2026 22:25:56:331,-120929.867,-83494.986,-77252.546,-83671.744,-78552.3,-84060.977,-75351.933,-85597.794
1.252,09-22-2026 22:25:56:335,-120945.066,-83749.796,-100156.736,-106992.883,-82756.484,-103618.083,-83864.103,-91431.241
1.256,09-22-2026 22:25:56:339,-120902.508,-83316.619,-76161.87,-84708.239,-81687.624,-96325.603,-83228.866,-92460.673
1.26,09-22-2026 22:25:56:343,-120869.07,-82722.063,-34170.855,-44284.93,-76485.837,-70801.922,-73954.412,-87399.299
1.264,09-22-2026 22:25:56:347,-120926.827,-82840.974,-35806.869,-44803.178,-74704.403,-63840.918,-69507.756,-83453.144
1.268,09-22-2026 22:25:56:351,-121014.982,-83494.986,-77797.884,-84189.991,-78694.815,-84392.453,-75860.122,-86026.724
1.272,09-22-2026 22:25:56:355,-121033.221,-83775.277,-101792.75,-108547.626,-83041.514,-104612.512,-84499.339,-91860.171
1.276,09-22-2026 22:25:56:359,-120993.703,-83342.1,-77797.884,-86781.229,-82043.911,-97651.508,-83991.15,-93061.175
1.28,09-22-2026 22:25:56:363,-120963.305,-82730.556,-35261.531,-45321.425,-76842.123,-71796.351,-74843.743,-87999.801
1.284,09-22-2026 22:25:56:367,-121021.062,-82849.468,-35806.869,-44803.178,-74989.432,-64172.395,-70270.04,-83967.86
1.288,09-22-2026 22:25:56:371,-121109.217,-83511.973,-77797.884,-84708.239,-78908.587,-85055.406,-76495.359,-86541.439
1.292,09-22-2026 22:25:56:375,-121124.416,-83800.758,-102883.426,-109584.121,-83397.801,-105606.941,-85261.623,-92632.245
1.296,09-22-2026 22:25:56:379,-121087.938,-83384.568,-79433.898,-88335.972,-82471.455,-98977.414,-85007.529,-94004.821
1.3,09-22-2026 22:25:56:383,-121066.659,-82764.531,-36352.207,-46357.92,-77269.668,-72790.78,-75860.122,-89200.805
1.304,09-22-2026 22:25:56:387,-121130.675,-82865.114,-36528.16,-45328.622,-75365.701,-64919.39,-71154.141,-85157.285
1.308,09-22-2026 22:25:56:391,-121217.846,-83521.719,-77858.547,-84802.161,-79192.588,-85407.714,-77131.042,-87579.32
1.312,09-22-2026 22:25:56:395,-121232.375,-83840.902,-104468.522,-111117.853,-83768.214,-106602.532,-86169.283,-93692.075
1.316,09-22-2026 22:25:56:399,-121191.695,-83421.404,-81255.565,-89736.353,-83019.475,-100244.087,-86023.505,-95306.765
1.32,09-22-2026 22:25:56:403,-121162.638,-82792.158,-37660.499,-47521.597,-77778.304,-74103.811,-76839.486,-90462.695
1.324,09-22-2026 22:25:56:407,-121220.752,-82883.353,-36528.16,-45328.622,-75781.667,-65272.637,-71883.031,-86310.635
1.328,09-22-2026 22:25:56:411,-121296.301,-83549.077,-78424.716,-84802.161,-79608.554,-85760.961,-77859.933,-88617.335
1.332,09-22-2026 22:25:56:415,-121305.018,-83868.26,-105034.692,-111666.097,-84184.18,-107309.026,-86898.173,-94730.09
1.336,09-22-2026 22:25:56:419,-121258.527,-83457.882,-82387.904,-90832.84,-83435.441,-100950.581,-86752.395,-96344.78
1.34,09-22-2026 22:25:56:423,-121229.469,-82819.516,-38226.669,-48618.084,-78277.463,-74810.305,-77714.154,-91616.045
1.344,09-22-2026 22:25:56:427,-121284.678,-82892.472,-36528.16,-45328.622,-76114.44,-65625.884,-72466.144,-87233.315
1.348,09-22-2026 22:25:56:431,-121363.133,-83549.077,-77292.377,-84253.917,-79858.134,-85407.714,-78151.489,-89424.68
1.352,09-22-2026 22:25:56:435,-121374.756,-83877.38,-105600.861,-112214.34,-84516.953,-107309.026,-87189.729,-95422.1
1.356,09-22-2026 22:25:56:439,-121328.264,-83476.121,-83520.244,-91929.327,-83934.6,-101657.075,-87335.508,-97152.125
1.36,09-22-2026 22:25:56:443,-121296.301,-82828.636,-38792.838,-49166.328,-78693.429,-75516.799,-78151.489,-92308.055
1.364,09-22-2026 22:25:56:447,-121348.604,-82892.472,-36528.16,-45328.622,-76447.213,-65979.131,-72903.478,-87925.325
1.368,09-22-2026 22:25:56:451,-121421.247,-83539.958,-77292.377,-84253.917,-80190.907,-85407.714,-78443.045,-90001.355
1.372,09-22-2026 22:25:56:455,-121435.776,-83895.619,-106167.031,-112762.584,-84932.919,-108015.52,-87627.064,-96114.11
1.376,09-22-2026 22:25:56:459,-121392.19,-83494.36,-84652.583,-93025.815,-84433.759,-102716.816,-87918.62,-97844.136
1.38,09-22-2026 22:25:56:463,-121360.227,-82855.994,-40491.347,-50811.058,-79358.975,-76576.54,-79026.157,-93346.07
1.384,09-22-2026 22:25:56:467,-121409.624,-82919.831,-38226.669,-46973.353,-77195.952,-67038.872,-73923.924,-89078.675
1.388,09-22-2026 22:25:56:471,-121485.173,-83585.555,-78990.886,-85898.648,-80939.645,-86820.702,-79609.269,-91270.04
1.392,09-22-2026 22:25:56:475,-121496.796,-83950.336,-108431.71,-114955.558,-85931.237,-109781.755,-88939.066,-97613.466
1.396,09-22-2026 22:25:56:479,-121450.305,-83585.555,-88615.771,-96863.52,-85681.657,-105542.792,-89667.957,-99804.831
1.4,09-22-2026 22:25:56:483,-121403.813,-82947.19,-44454.535,-54100.52,-80773.259,-79755.763,-81212.828,-95537.435
1.404,09-22-2026 22:25:56:487,-121443.912,-83000.789,-40655.677,-49550.107,-78552.479,-69876.56,-75847.516,-91237.407
1.408,09-22-2026 22:25:56:491,-121504.619,-83644.34,-80462.883,-86866.434,-82176.144,-88690.113,-81289.584,-93176.51
1.412,09-22-2026 22:25:56:495,-121504.619,-84026.108,-110016.717,-116602.882,-87180.252,-111561.49,-90689.521,-99299.994
1.416,09-22-2026 22:25:56:499,-121435.239,-83655.248,-90113.114,-98527.786,-86835.141,-107134.772,-91349.166,-101443.213
1.42,09-22-2026 22:25:56:503,-121374.532,-83022.604,-46083.933,-55963.851,-81831.033,-81681.142,-82773.785,-97258.833
1.424,09-22-2026 22:25:56:507,-121391.877,-83055.327,-41861.956,-50716.242,-79501.534,-71352.133,-77166.805,-92870.336
1.428,09-22-2026 22:25:56:511,-121452.584,-83698.879,-81066.022,-88032.569,-83125.199,-89796.792,-82443.962,-94605.323
1.432,09-22-2026 22:25:56:515,-121448.248,-84080.647,-111222.996,-117769.017,-88129.307,-112668.17,-91843.899,-100728.807
1.436,09-22-2026 22:25:56:519,-121378.868,-83731.602,-91922.533,-100860.056,-87870.474,-108979.238,-92503.544,-102974.084
1.44,09-22-2026 22:25:56:523,-121300.816,-83077.143,-47893.351,-57713.054,-82780.088,-83156.715,-83763.252,-98789.704
1.444,09-22-2026 22:25:56:527,-121313.825,-83098.958,-41861.956,-50716.242,-80105.478,-71721.026,-77661.538,-93992.975
1.448,09-22-2026 22:25:56:531,-121365.86,-83709.786,-79859.743,-86283.366,-83384.032,-89427.899,-82279.051,-95217.671
1.452,09-22-2026 22:25:56:535,-121357.187,-84080.647,-109413.577,-116019.814,-88129.307,-111930.384,-91349.166,-100932.923
1.456,09-22-2026 22:25:56:539,-121270.462,-83709.786,-90113.114,-98527.786,-87697.919,-107503.665,-91678.988,-102769.968
1.46,09-22-2026 22:25:56:543,-121175.065,-83044.42,-45480.793,-55963.851,-82262.422,-81681.142,-81949.229,-98075.297
1.464,09-22-2026 22:25:56:547,-121175.065,-83022.604,-38846.259,-47800.904,-79242.701,-69507.667,-75187.871,-92870.336
1.468,09-22-2026 22:25:56:551,-121218.428,-83600.71,-75637.767,-82784.961,-82176.144,-86107.86,-79475.561,-93686.8
1.472,09-22-2026 22:25:56:555,-121218.428,-83960.662,-105794.74,-112521.409,-86748.864,-108610.345,-88545.676,-98993.82
1.476,09-22-2026 22:25:56:559,-121140.375,-83578.895,-87097.417,-95612.448,-86144.92,-104552.52,-88710.587,-100524.691
1.48,09-22-2026 22:25:56:563,-121053.651,-82902.62,-42465.096,-52465.445,-80536.867,-78361.103,-78815.917,-95625.904
1.484,09-22-2026 22:25:56:567,-121057.987,-82848.082,-34624.283,-43719.431,-77172.035,-65818.735,-71559.825,-90012.71
1.488,09-22-2026 22:25:56:571,-121118.694,-83393.464,-69606.372,-76954.285,-79674.09,-81312.249,-75352.782,-90216.826
1.492,09-22-2026 22:25:56:575,-121127.367,-83742.509,-99763.346,-106690.732,-83901.698,-103445.84,-84257.985,-94911.497
1.496,09-22-2026 22:25:56:579,-121053.651,-83371.649,-81669.162,-90364.839,-83038.921,-99756.908,-84257.985,-96136.194
1.5,09-22-2026 22:25:56:583,-120953.917,-82695.375,-37639.98,-47800.904,-77172.035,-73565.492,-73868.582,-90931.233
1.504,09-22-2026 22:25:56:587,-120950.251,-82624.252,-28945.688,-37954.648,-73478.141,-60519.404,-65772.601,-84838.773
1.508,09-22-2026 22:25:56:591,-120998.129,-83153.317,-63420.259,-70651.406,-75647.825,-75576.657,-69185.086,-84687.496
1.512,09-22-2026 22:25:56:595,-120998.129,-83506.028,-94064.321,-101238.695,-79859.564,-98329.839,-78356.141,-89377.071
1.516,09-22-2026 22:25:56:599,-120922.893,-83153.317,-77647.859,-85945.05,-79093.794,-95318.388,-78569.422,-90436.007
1.52,09-22-2026 22:25:56:603,-120827.138,-82494.924,-34965.057,-45337.787,-73350.513,-70222.967,-67905.404,-85292.603
1.524,09-22-2026 22:25:56:607,-120820.298,-82412.625,-26209.611,-35317.813,-69649.287,-57173.348,-59160.91,-79090.262
1.528,09-22-2026 22:25:56:611,-120881.855,-82941.691,-60684.182,-67487.203,-71946.6,-72565.207,-62573.396,-78636.432
1.532,09-22-2026 22:25:56:615,-120909.214,-83306.159,-91875.46,-98601.86,-76030.71,-95318.388,-72597.572,-82872.177
1.536,09-22-2026 22:25:56:619,-120833.978,-82965.205,-76006.213,-84362.949,-75392.568,-92976.149,-73237.413,-84082.39
1.54,09-22-2026 22:25:56:623,-120738.223,-82306.812,-34417.842,-44283.053,-69776.916,-68549.939,-62360.115,-79090.262
1.544,09-22-2026 22:25:56:627,-120731.383,-82224.513,-25662.395,-34790.446,-66330.947,-55834.926,-53615.621,-73341.751
1.548,09-22-2026 22:25:56:631,-120786.1,-82741.822,-59042.535,-65905.102,-68628.26,-70892.179,-57667.948,-73341.751
1.552,09-22-2026 22:25:56:635,-120792.94,-83118.046,-90781.029,-97547.126,-72967.627,-94314.572,-68758.526,-78031.326
1.556,09-22-2026 22:25:56:639,-120704.025,-82788.85,-76553.428,-84890.316,-72712.37,-92976.149,-70464.768,-79846.645
1.56,09-22-2026 22:25:56:643,-120587.751,-82153.971,-36606.704,-46392.521,-67351.975,-69219.15,-60014.032,-76064.73
1.564,09-22-2026 22:25:56:647,-120560.392,-82071.672,-27304.042,-36372.547,-63650.75,-56504.137,-51482.818,-71223.878
1.568,09-22-2026 22:25:56:651,-120601.43,-82600.738,-60684.182,-67487.203,-66075.691,-71895.995,-56174.985,-71677.708
1.572,09-22-2026 22:25:56:655,-120601.43,-82988.719,-92969.891,-99656.594,-70925.572,-95987.6,-68331.965,-76972.389
1.576,09-22-2026 22:25:56:659,-120512.515,-82694.794,-80383.936,-88581.886,-71180.829,-95652.994,-70891.329,-79544.092
1.58,09-22-2026 22:25:56:663,-120389.401,-82095.186,-40984.427,-50611.457,-66713.833,-72899.812,-61080.433,-76518.56
1.584,09-22-2026 22:25:56:667,-120355.203,-82012.887,-31134.55,-40064.116,-63778.378,-60184.799,-52549.219,-72282.815
1.588,09-22-2026 22:25:56:671,-120382.562,-82506.681,-63420.259,-70124.038,-66458.576,-74907.446,-57667.948,-72887.921
1.592,09-22-2026 22:25:56:675,-120375.722,-82906.42,-95158.752,-101766.062,-71436.086,-98329.839,-70251.488,-78182.602
1.596,09-22-2026 22:25:56:679,-120266.288,-82624.252,-83120.013,-91218.721,-71946.6,-98329.839,-72810.852,-80905.581
1.6,09-22-2026 22:25:56:683,-120129.495,-82024.644,-44267.719,-53775.66,-67479.604,-75576.657,-62573.396,-78333.879
1.604,09-22-2026 22:25:56:687,-120076.298,-81932.286,-34055.744,-43040.519,-64703.428,-62659.003,-54092.25,-74536.005
1.608,09-22-2026 22:25:56:691,-120105.802,-82422.326,-64831.414,-72203.421,-67453.407,-76891.476,-59235.207,-75330.475
1.612,09-22-2026 22:25:56:695,-120111.167,-82836.325,-97658.795,-104332.042,-72756.94,-100612.265,-72651.618,-80891.768
1.616,09-22-2026 22:25:56:699,-120022.654,-82574.407,-86374.383,-94446.313,-73444.435,-100928.542,-76005.721,-84069.649
1.62,09-22-2026 22:25:56:703,-119904.637,-81991.429,-48417.723,-57869.113,-69319.465,-78789.139,-66390.627,-82215.885
1.624,09-22-2026 22:25:56:707,-119880.497,-81898.49,-37646.239,-46500.524,-66569.485,-65505.498,-57893.566,-78773.18
1.628,09-22-2026 22:25:56:711,-119944.87,-82396.979,-67908.981,-74674.854,-69417.679,-79737.971,-63707.344,-79700.062
1.632,09-22-2026 22:25:56:715,-119990.467,-82810.978,-99197.578,-105814.902,-74622.998,-102826.205,-77347.362,-84864.12
1.636,09-22-2026 22:25:56:719,-119939.505,-82549.06,-87913.166,-95929.172,-75310.493,-102826.205,-80477.858,-87777.178
1.64,09-22-2026 22:25:56:723,-119850.993,-81957.633,-49443.579,-58857.686,-70890.882,-80054.248,-69521.123,-85393.767
1.644,09-22-2026 22:25:56:727,-119845.628,-81839.348,-37133.311,-46006.238,-67846.262,-65821.775,-59682.421,-81421.415
1.648,09-22-2026 22:25:56:731,-119923.412,-82312.489,-66370.197,-73191.994,-70399.814,-79105.416,-64825.379,-81818.65
1.652,09-22-2026 22:25:56:735,-119974.374,-82743.386,-99197.578,-105814.902,-75605.133,-102826.205,-78912.61,-86717.884
1.656,09-22-2026 22:25:56:739,-119912.683,-82473.02,-86887.31,-94940.599,-76096.201,-102193.651,-81595.893,-89498.531
1.66,09-22-2026 22:25:56:743,-119810.759,-81864.695,-46878.939,-56386.254,-71480.164,-78472.862,-69297.516,-86717.884
1.664,09-22-2026 22:25:56:747,-119797.348,-81763.307,-34055.744,-43040.519,-68042.689,-63291.557,-58564.387,-82215.885
1.668,09-22-2026 22:25:56:751,-119867.086,-82253.347,-63805.558,-70720.562,-70498.028,-76891.476,-63707.344,-82348.297
1.672,09-22-2026 22:25:56:755,-119918.048,-82692.693,-96632.939,-103343.469,-75605.133,-100612.265,-78018.183,-86982.708
1.676,09-22-2026 22:25:56:759,-119864.404,-82456.122,-85861.455,-93952.026,-76194.415,-100928.542,-80925.072,-89763.354
1.68,09-22-2026 22:25:56:763,-119775.891,-81890.041,-48417.723,-57869.113,-71873.018,-78789.139,-69521.123,-87379.943
1.684,09-22-2026 22:25:56:767,-119773.208,-81805.552,-36107.455,-45017.665,-68730.184,-64872.943,-59235.207,-83275.179
1.688,09-22-2026 22:25:56:771,-119856.357,-82287.143,-64318.486,-71709.135,-71185.523,-77840.308,-64601.772,-83540.003
1.692,09-22-2026 22:25:56:775,-119926.094,-82743.386,-97145.867,-103837.756,-76292.628,-101244.819,-78912.61,-88306.825
1.696,09-22-2026 22:25:56:779,-119888.543,-82540.611,-87913.166,-95929.172,-77176.55,-102509.928,-82490.32,-91352.295
1.7,09-22-2026 22:25:56:783,-119808.077,-82025.225,-53034.073,-62317.692,-73444.435,-82268.188,-72204.405,-89498.531
1.704,09-22-2026 22:25:56:787,-119806.066,-81922.228,-40150.707,-49113.622,-70521.989,-68561.07,-62438.749,-85643.078
1.708,09-22-2026 22:25:56:791,-119886.8,-82372.839,-66350.975,-73411.578,-72715.813,-80031.986,-67085.676,-85643.078
1.712,09-22-2026 22:25:56:795,-119954.392,-82815.404,-97520.259,-104217.914,-77542.225,-102400.27,-80654.705,-90027.507
1.716,09-22-2026 22:25:56:799,-119920.596,-82638.378,-89389.141,-97275.641,-78595.26,-103834.135,-84372.247,-93051.251
1.72,09-22-2026 22:25:56:803,-119841.739,-82115.347,-55057.756,-64299.844,-74909.636,-84046.806,-74149.007,-91161.411
1.724,09-22-2026 22:25:56:807,-119837.984,-82010.741,-41505.893,-50415.298,-71926.036,-69994.935,-64111.643,-87230.544
1.728,09-22-2026 22:25:56:811,-119916.841,-82445.259,-66802.703,-73845.47,-73944.354,-81179.077,-68386.816,-87079.357
1.732,09-22-2026 22:25:56:815,-119990.065,-82895.87,-97520.259,-104217.914,-78770.766,-102973.816,-81955.845,-91312.598
1.736,09-22-2026 22:25:56:819,-119958.147,-82710.798,-90292.599,-98143.425,-79736.049,-104694.453,-85673.387,-94260.749
1.74,09-22-2026 22:25:56:823,-119881.167,-82195.813,-55961.213,-65167.629,-76138.178,-85193.898,-75450.146,-92295.315
1.744,09-22-2026 22:25:56:827,-119875.535,-82059.021,-41505.893,-50415.298,-72891.319,-70281.708,-65041.028,-88062.073
1.748,09-22-2026 22:25:56:831,-119958.147,-82485.492,-65447.517,-72977.686,-74821.883,-80605.531,-68758.57,-87684.105
1.752,09-22-2026 22:25:56:835,-120031.371,-82928.056,-97068.53,-103784.022,-79472.79,-102687.043,-81955.845,-91766.16
1.756,09-22-2026 22:25:56:839,-119997.575,-82751.031,-90292.599,-98143.425,-80613.578,-104694.453,-86045.141,-94638.717
1.76,09-22-2026 22:25:56:843,-119914.963,-82219.953,-55961.213,-65167.629,-76927.954,-85193.898,-76007.778,-92673.283
1.764,09-22-2026 22:25:56:847,-119901.82,-82067.067,-40602.436,-49547.514,-73593.342,-69994.935,-65226.905,-88364.448
1.768,09-22-2026 22:25:56:851,-119976.922,-82493.539,-64544.06,-72109.902,-75348.401,-80031.986,-68758.57,-87835.293
1.772,09-22-2026 22:25:56:855,-120042.636,-82944.15,-96616.801,-103350.13,-80087.06,-102400.27,-81955.845,-91992.941
1.776,09-22-2026 22:25:56:859,-120006.963,-82775.171,-90744.327,-98577.317,-81227.849,-104981.226,-86045.141,-95016.685
1.78,09-22-2026 22:25:56:863,-119920.596,-82236.046,-55961.213,-65601.521,-77542.225,-85480.67,-76379.532,-93051.251
1.784,09-22-2026 22:25:56:867,-119905.576,-82067.067,-40150.707,-49113.622,-74119.86,-69708.162,-65784.537,-88742.416
1.788,09-22-2026 22:25:56:871,-119973.167,-82485.492,-63640.602,-71242.117,-75699.413,-79458.44,-68758.57,-88062.073
1.792,09-22-2026 22:25:56:875,-120037.004,-82944.15,-96616.801,-103350.13,-80525.825,-102113.498,-81769.968,-92219.721
1.796,09-22-2026 22:25:56:879,-119993.82,-82783.217,-90744.327,-98577.317,-81666.613,-104981.226,-86045.141,-95243.465
1.8,09-22-2026 22:25:56:883,-119899.943,-82252.14,-55961.213,-65167.629,-77980.99,-85480.67,-76565.409,-93353.625
1.804,09-22-2026 22:25:56:887,-119874.328,-82072.566,-39078.807,-48026.836,-74353.972,-69253.885,-65947.615,-88830.213
1.808,09-22-2026 22:25:56:891,-119939.461,-82493.136,-62510.274,-70048.847,-75920.829,-78594.232,-68609.752,-88052.775
1.812,09-22-2026 22:25:56:895,-120006.695,-82958.768,-95983.8,-102623.073,-80746.75,-101493.147,-81294.055,-92222.672
1.816,09-22-2026 22:25:56:899,-119968.876,-82808.564,-91201.868,-98952.737,-82062.91,-105108.765,-85835.348,-95332.425
1.82,09-22-2026 22:25:56:903,-119878.53,-82260.32,-56293.762,-65460.928,-78302.452,-85524.167,-77065.954,-93424.167
1.824,09-22-2026 22:25:56:907,-119857.519,-82065.056,-38600.613,-47568.044,-74604.669,-68952.584,-66574,-88759.537
1.828,09-22-2026 22:25:56:911,-119926.854,-82470.606,-62032.081,-69131.263,-76108.852,-78292.931,-68922.945,-87911.423
1.832,09-22-2026 22:25:56:915,-119998.291,-82951.258,-95983.8,-102623.073,-80997.447,-101493.147,-81294.055,-92081.319
1.836,09-22-2026 22:25:56:919,-119966.775,-82793.544,-91201.868,-98952.737,-82250.933,-105108.765,-85678.752,-95261.749
1.84,09-22-2026 22:25:56:923,-119886.934,-82245.3,-55815.569,-65002.136,-78490.475,-85524.167,-77065.954,-93141.463
1.844,09-22-2026 22:25:56:927,-119876.429,-82035.015,-36687.84,-45732.876,-74541.995,-68048.679,-66417.404,-88264.804
1.848,09-22-2026 22:25:56:931,-119954.168,-82440.565,-59641.115,-67296.096,-75920.829,-76786.423,-68453.156,-87275.337
1.852,09-22-2026 22:25:56:935,-120036.11,-82928.727,-94549.22,-101246.697,-80809.424,-100287.941,-80354.477,-91374.557
1.856,09-22-2026 22:25:56:939,-120015.099,-82786.033,-90723.674,-98493.945,-82125.584,-104506.162,-85052.366,-94554.987
1.86,09-22-2026 22:25:56:943,-119939.461,-82230.28,-54859.183,-64543.344,-78302.452,-84620.262,-76596.165,-92505.377
1.864,09-22-2026 22:25:56:947,-119933.158,-82012.484,-35253.261,-44356.5,-74291.298,-66843.473,-66104.211,-87558.042
1.868,09-22-2026 22:25:56:951,-120012.998,-82418.034,-58206.535,-65919.72,-75607.458,-75581.217,-67826.771,-86497.898
1.872,09-22-2026 22:25:56:955,-120099.142,-82921.217,-94071.027,-100787.905,-80558.727,-99384.037,-79728.091,-90809.147
1.876,09-22-2026 22:25:56:959,-120076.03,-82786.033,-91201.868,-98493.945,-82000.236,-104204.861,-84739.174,-94201.606
1.88,09-22-2026 22:25:56:963,-119998.291,-82237.79,-55815.569,-65002.136,-78302.452,-84921.564,-76909.358,-92293.348
1.884,09-22-2026 22:25:56:967,-119979.381,-82004.974,-35253.261,-44356.5,-74291.298,-66843.473,-66417.404,-87346.013
1.888,09-22-2026 22:25:56:971,-120050.817,-82410.524,-57728.342,-65002.136,-75544.784,-74978.614,-67983.367,-86356.546
1.892,09-22-2026 22:25:56:975,-120120.152,-82921.217,-94071.027,-100787.905,-80496.053,-99384.037,-79728.091,-90667.795
1.896,09-22-2026 22:25:56:979,-120092.838,-82801.054,-91680.061,-99411.529,-82125.584,-104807.464,-84895.77,-94272.282
1.9,09-22-2026 22:25:56:983,-120010.897,-82252.81,-56771.956,-65919.72,-78490.475,-85825.468,-77535.743,-92505.377
1.904,09-22-2026 22:25:56:987,-119995.027,-82006.673,-35393.272,-44600,-74485.445,-67255.103,-67570.396,-87665.911
1.908,09-22-2026 22:25:56:991,-120066.374,-82405.651,-57087.875,-64666.86,-75641.343,-74961.984,-68755.933,-86573
1.912,09-22-2026 22:25:56:995,-120148.986,-82937.623,-94345.998,-101152.06,-80672.9,-99315.73,-79870.338,-90944.644
1.916,09-22-2026 22:25:56:999,-120126.455,-82820.276,-92931.133,-100695.995,-82440.744,-105481.235,-85205.252,-94701.525
1.92,09-22-2026 22:25:57:003,-120051.354,-82272.659,-58031.119,-66947.185,-78973.049,-86984.719,-78536.609,-93062.159
1.924,09-22-2026 22:25:57:007,-120036.333,-82014.496,-35864.894,-45056.065,-74825.415,-67871.653,-68755.933,-88212.366
1.928,09-22-2026 22:25:57:011,-120111.435,-82405.651,-57087.875,-64666.86,-75913.319,-75270.259,-69793.277,-86982.842
1.932,09-22-2026 22:25:57:015,-120194.047,-82937.623,-94817.62,-101608.125,-81012.87,-99932.28,-80611.298,-91354.485
1.936,09-22-2026 22:25:57:019,-120179.027,-82835.923,-94345.998,-101608.125,-82916.702,-106406.061,-85946.213,-95179.673
1.94,09-22-2026 22:25:57:023,-120115.19,-82288.305,-58974.362,-68315.38,-79449.007,-87909.545,-79573.954,-93608.614
1.944,09-22-2026 22:25:57:027,-120111.435,-82006.673,-35393.272,-44600,-75165.385,-67871.653,-69645.085,-88485.594
1.948,09-22-2026 22:25:57:031,-120197.802,-82382.182,-56616.253,-64210.795,-76117.301,-74961.984,-70386.046,-87119.456
1.952,09-22-2026 22:25:57:035,-120291.68,-82921.977,-94345.998,-101152.06,-81080.864,-99315.73,-80907.682,-91354.485
1.956,09-22-2026 22:25:57:039,-120284.169,-82828.099,-94345.998,-102064.19,-83052.69,-106406.061,-86242.597,-95247.98
1.96,09-22-2026 22:25:57:043,-120224.088,-82264.836,-59445.984,-68315.38,-79584.995,-87909.545,-79870.338,-93676.921
1.964,09-22-2026 22:25:57:047,-120216.578,-81975.38,-34921.65,-44143.935,-75301.373,-67871.653,-70237.854,-88553.901
1.968,09-22-2026 22:25:57:051,-120299.19,-82350.89,-55201.388,-62842.6,-76117.301,-74345.434,-70682.43,-87051.149
1.972,09-22-2026 22:25:57:055,-120389.312,-82898.507,-93874.376,-100695.995,-81148.858,-99007.454,-81055.874,-91354.485
1.976,09-22-2026 22:25:57:059,-120381.802,-82812.453,-94817.62,-102064.19,-83120.684,-106406.061,-86390.789,-95247.98
1.98,09-22-2026 22:25:57:063,-120321.72,-82257.012,-59917.606,-69227.51,-79788.977,-88526.096,-80463.106,-93813.535
1.984,09-22-2026 22:25:57:067,-120314.21,-81944.088,-34921.65,-44143.935,-75369.367,-67871.653,-70682.43,-88690.515
1.988,09-22-2026 22:25:57:071,-120389.312,-82303.951,-54258.144,-61930.47,-76049.307,-73420.608,-70682.43,-87051.149
1.992,09-22-2026 22:25:57:075,-120471.924,-82859.392,-92931.133,-99327.8,-81012.87,-98082.629,-80759.49,-91149.565
1.996,09-22-2026 22:25:57:079,-120456.904,-82788.984,-94817.62,-102064.19,-83120.684,-106406.061,-86390.789,-95111.367
2,09-22-2026 22:25:57:083,-120381.802,-82233.543,-60389.228,-69227.51,-79856.971,-88526.096,-80611.298,-93813.535
2.004,09-22-2026 22:25:57:087,-120356.947,-81916.998,-34461.428,-43708.3,-75429.627,-67821.853,-70789.629,-88700.439
2.008,09-22-2026 22:25:57:091,-120420.783,-82263.181,-53105.644,-60811.184,-75913.096,-72907.322,-70656.01,-86965.899
2.012,09-22-2026 22:25:57:095,-120496.779,-82821.796,-92409.666,-98926.183,-80885.912,-97381.141,-80410.177,-91038.298
2.016,09-22-2026 22:25:57:099,-120481.58,-82766.722,-94929.155,-102346.76,-83096.052,-106280.712,-86155.782,-95110.696
2.02,09-22-2026 22:25:57:103,-120414.704,-82215.975,-61168.007,-70095.607,-79988.042,-88799.413,-80677.415,-93904.059
2.024,09-22-2026 22:25:57:107,-120402.544,-81877.659,-34461.428,-43708.3,-75429.627,-67821.853,-70923.247,-88700.439
2.028,09-22-2026 22:25:57:111,-120481.58,-82223.842,-52601.746,-60322.53,-75913.096,-72271.639,-70522.391,-86815.07
2.032,09-22-2026 22:25:57:115,-120575.815,-82782.457,-91401.871,-97948.876,-80747.778,-96745.458,-80142.94,-90661.224
2.036,09-22-2026 22:25:57:119,-120572.775,-82727.383,-94425.257,-101858.106,-83026.985,-105645.028,-85888.545,-94733.622
2.04,09-22-2026 22:25:57:123,-120515.018,-82176.636,-60664.11,-70095.607,-79918.975,-88799.413,-80543.796,-93451.571
2.044,09-22-2026 22:25:57:127,-120502.859,-81830.452,-33957.53,-43219.646,-75429.627,-67504.012,-70789.629,-88323.365
2.048,09-22-2026 22:25:57:131,-120575.815,-82168.768,-51593.951,-59345.223,-75844.029,-71635.955,-70388.773,-86437.996
2.052,09-22-2026 22:25:57:135,-120660.93,-82743.118,-90897.973,-97460.222,-80747.778,-96109.774,-79875.702,-90359.564
2.056,09-22-2026 22:25:57:139,-120648.771,-82695.911,-94929.155,-102346.76,-83165.119,-105645.028,-85888.545,-94582.792
2.06,09-22-2026 22:25:57:143,-120584.934,-82168.768,-62175.803,-71072.915,-80264.31,-89435.096,-80944.652,-93602.4
2.064,09-22-2026 22:25:57:147,-120560.616,-81822.584,-34461.428,-43708.3,-75774.962,-68139.695,-71324.104,-88625.024
2.068,09-22-2026 22:25:57:151,-120624.452,-82153.032,-51593.951,-59345.223,-76189.363,-71953.797,-70656.01,-86739.655
2.072,09-22-2026 22:25:57:155,-120703.488,-82727.383,-90897.973,-97460.222,-81024.045,-96427.616,-80009.321,-90661.224
2.076,09-22-2026 22:25:57:159,-120688.289,-82703.779,-96440.848,-103324.068,-83579.52,-106598.554,-86289.401,-95035.281
2.08,09-22-2026 22:25:57:163,-120618.373,-82176.636,-63687.496,-73027.53,-80816.845,-90706.464,-81746.364,-94281.133
2.084,09-22-2026 22:25:57:167,-120594.054,-81830.452,-35973.121,-45174.261,-76465.631,-69411.063,-72259.435,-89530.002
2.088,09-22-2026 22:25:57:171,-120657.891,-82153.032,-52601.746,-60322.53,-76741.898,-73225.164,-71591.341,-87720.047
2.092,09-22-2026 22:25:57:175,-120739.966,-82735.25,-92409.666,-98926.183,-81645.647,-97381.141,-80944.652,-91641.616
2.096,09-22-2026 22:25:57:179,-120733.886,-82727.383,-97952.541,-105278.683,-84201.122,-107869.921,-87358.351,-96015.673
2.1,09-22-2026 22:25:57:183,-120663.97,-82208.107,-66206.985,-74982.145,-81576.581,-92613.514,-83082.552,-95487.77
2.104,09-22-2026 22:25:57:187,-120633.482,-81851.909,-37625.317,-46891.635,-77184.016,-71223.163,-73551.276,-90691.041
2.108,09-22-2026 22:25:57:191,-120694.994,-82163.269,-52986.375,-60762.413,-77321.166,-73872.471,-72539.904,-88724.311
2.112,09-22-2026 22:25:57:195,-120779.573,-82750.405,-92713.248,-99292.35,-82052.852,-98047.402,-81642.25,-92376.809
2.116,09-22-2026 22:25:57:199,-120771.884,-82750.405,-99069.548,-106484.605,-84658.707,-108975.796,-88143.925,-96872.192
2.12,09-22-2026 22:25:57:203,-120702.683,-82243.333,-67817.741,-76688.12,-82121.427,-94073.441,-84098.439,-96310.269
2.124,09-22-2026 22:25:57:207,-120668.083,-81869.701,-38155.009,-47405.368,-77664.042,-72216.653,-74562.648,-91533.925
2.128,09-22-2026 22:25:57:211,-120733.439,-82181.061,-53516.066,-61276.145,-77801.192,-74865.961,-73262.313,-89473.541
2.132,09-22-2026 22:25:57:215,-120825.707,-82768.197,-93772.631,-100319.815,-82532.878,-98709.729,-82364.658,-93219.694
2.136,09-22-2026 22:25:57:219,-120825.707,-82785.989,-100658.622,-108025.802,-85138.733,-109969.286,-89010.816,-97715.077
2.14,09-22-2026 22:25:57:223,-120764.195,-82278.917,-69936.507,-78743.05,-82670.028,-95729.258,-85109.81,-97340.461
2.144,09-22-2026 22:25:57:227,-120744.973,-81905.285,-39744.084,-49460.298,-78281.218,-73872.471,-75718.501,-92657.771
2.148,09-22-2026 22:25:57:231,-120825.707,-82225.541,-55105.141,-62817.343,-78418.369,-76190.615,-74418.166,-90597.387
2.152,09-22-2026 22:25:57:235,-120937.198,-82830.469,-95361.706,-101861.012,-83081.479,-100034.383,-83376.03,-94343.539
2.156,09-22-2026 22:25:57:239,-120948.731,-82866.053,-103307.081,-110594.465,-85687.335,-111956.267,-90166.669,-99026.23
2.16,09-22-2026 22:25:57:243,-120891.064,-82367.877,-72584.966,-81825.445,-83287.204,-98378.566,-86554.627,-98838.922
2.164,09-22-2026 22:25:57:247,-120860.308,-81985.349,-41862.85,-51515.228,-78966.97,-76190.615,-77307.8,-94156.232
2.168,09-22-2026 22:25:57:251,-120933.353,-82287.813,-56164.525,-63844.808,-79035.545,-77846.432,-75862.983,-92002.194
2.172,09-22-2026 22:25:57:255,-121037.155,-82892.741,-96421.089,-102888.477,-83424.355,-101359.037,-84387.402,-95654.693
2.176,09-22-2026 22:25:57:259,-121048.688,-82937.221,-104896.156,-112135.662,-85893.06,-113280.921,-90889.077,-100243.729
2.18,09-22-2026 22:25:57:263,-120987.176,-82439.045,-74174.04,-82852.91,-83492.93,-99703.219,-87421.517,-99962.768
2.184,09-22-2026 22:25:57:267,-120952.576,-82038.725,-42392.542,-51515.228,-79104.12,-77184.105,-78030.208,-95092.77
2.188,09-22-2026 22:25:57:271,-121017.932,-82332.293,-55634.833,-63844.808,-78966.97,-77846.432,-76007.465,-92657.771
2.192,09-22-2026 22:25:57:275,-121121.734,-82937.221,-95891.398,-102888.477,-83218.629,-101027.873,-84242.92,-96122.962
2.196,09-22-2026 22:25:57:279,-121121.734,-82981.701,-104896.156,-112135.662,-85550.184,-113280.921,-90744.596,-100618.345
2.2,09-22-2026 22:25:57:283,-121044.844,-82483.525,-74174.04,-83366.642,-83081.479,-99703.219,-87277.035,-100337.383
2.204,09-22-2026 22:25:57:287,-120988.473,-82070.599,-42351.817,-51689.661,-78829.551,-77372.754,-77773.476,-95342.841
2.208,09-22-2026 22:25:57:291,-121033.221,-82344.721,-54855.338,-63250.877,-78829.551,-77722.603,-75876.707,-92837.255
2.212,09-22-2026 22:25:57:295,-121112.391,-82958.231,-95938.336,-102559.012,-83035.881,-100462.821,-84032.814,-96178.036
2.216,09-22-2026 22:25:57:299,-121108.949,-83023.498,-106060.234,-112964.107,-85631.276,-113407.253,-91050.859,-100950.581
2.22,09-22-2026 22:25:57:303,-121036.663,-82540.522,-75694.54,-84639.127,-83483.363,-100812.671,-88016.029,-100831.267
2.224,09-22-2026 22:25:57:307,-120991.915,-82122.813,-43542.629,-52845.782,-79366.53,-78422.302,-78721.86,-95939.409
2.228,09-22-2026 22:25:57:311,-121053.874,-82423.041,-56641.556,-64406.999,-79456.026,-79122.001,-77014.768,-93553.137
2.232,09-22-2026 22:25:57:315,-121146.813,-83049.605,-98319.959,-104871.256,-83841.349,-102212.069,-85739.906,-97251.859
2.236,09-22-2026 22:25:57:319,-121129.602,-83140.979,-109037.263,-116432.472,-86526.24,-115856.199,-92947.628,-102263.031
2.24,09-22-2026 22:25:57:323,-121040.105,-82671.056,-79266.975,-88107.492,-84467.823,-103611.467,-90102.475,-102382.344
2.244,09-22-2026 22:25:57:327,-120971.262,-82253.347,-46519.658,-55736.086,-80350.99,-81221.098,-80997.983,-97848.427
2.248,09-22-2026 22:25:57:331,-121022.895,-82553.575,-59618.584,-67297.303,-80350.99,-81221.098,-79290.891,-95462.155
2.252,09-22-2026 22:25:57:335,-121119.275,-83193.193,-101296.988,-107761.56,-84736.313,-103961.316,-88016.029,-99160.877
2.256,09-22-2026 22:25:57:339,-121136.486,-83310.674,-113205.104,-119900.837,-87510.701,-117955.296,-95603.105,-104291.362
2.26,09-22-2026 22:25:57:343,-121077.969,-82853.804,-83434.815,-92153.918,-85631.276,-106410.263,-92947.628,-104649.303
2.264,09-22-2026 22:25:57:347,-121040.105,-82436.095,-50092.092,-59204.451,-81514.443,-84369.744,-83653.46,-100115.386
2.268,09-22-2026 22:25:57:351,-121126.16,-82736.323,-62000.208,-70187.607,-81603.939,-84019.894,-81756.691,-97609.8
2.272,09-22-2026 22:25:57:355,-121260.404,-83402.048,-104274.017,-110651.864,-86078.758,-106410.263,-90481.829,-101308.522
2.276,09-22-2026 22:25:57:359,-121287.941,-83532.582,-116182.133,-123369.202,-88942.643,-120404.243,-98068.905,-106439.007
2.28,09-22-2026 22:25:57:363,-121215.656,-83062.659,-86411.844,-95044.222,-86973.722,-109209.059,-95413.428,-106677.634
2.284,09-22-2026 22:25:57:367,-121160.581,-82631.896,-51878.309,-61516.695,-82856.889,-87168.54,-86119.26,-101905.09
2.288,09-22-2026 22:25:57:371,-121232.867,-82919.071,-63191.019,-71343.728,-82856.889,-86118.992,-83843.137,-99160.877
2.292,09-22-2026 22:25:57:375,-121367.111,-83597.849,-105464.829,-112386.046,-87331.708,-107809.661,-92378.598,-102740.285
2.296,09-22-2026 22:25:57:379,-121404.975,-83728.383,-117968.35,-125103.384,-90195.592,-121803.641,-99965.674,-107870.77
2.3,09-22-2026 22:25:57:383,-121349.901,-83284.567,-88198.061,-97356.465,-88226.672,-111308.156,-97310.197,-107990.084
2.304,09-22-2026 22:25:57:387,-121303.096,-82836.414,-53100.011,-62508.307,-84043.319,-89451.413,-87688.799,-103089.33
2.308,09-22-2026 22:25:57:391,-121386.244,-83121.801,-64168.103,-72096.714,-84043.319,-87878.968,-85426.4,-100412.485
2.312,09-22-2026 22:25:57:395,-121531.754,-83797.718,-107275.409,-113834.484,-88598.783,-108635.245,-93953.904,-103870.076
2.316,09-22-2026 22:25:57:399,-121566.4,-83962.942,-121838.688,-128499.106,-91704.782,-123416.23,-102133.346,-109335.301
2.32,09-22-2026 22:25:57:403,-121497.109,-83497.311,-90964.537,-99733.886,-89530.583,-113352.58,-99348.855,-109669.907
2.324,09-22-2026 22:25:57:407,-121441.677,-83031.679,-53682.542,-63636.355,-85078.652,-90709.369,-89255.075,-104650.823
2.328,09-22-2026 22:25:57:411,-121531.754,-83332.087,-65915.697,-73788.786,-85078.652,-89136.924,-86644.615,-101973.978
2.332,09-22-2026 22:25:57:415,-121698.051,-84053.064,-111353.128,-117782.652,-89841.183,-110522.179,-95868.241,-105766.175
2.336,09-22-2026 22:25:57:419,-121753.484,-84218.289,-125333.875,-132447.273,-93050.714,-125932.142,-104395.745,-111454.47
2.34,09-22-2026 22:25:57:423,-121691.122,-83737.637,-93877.193,-102554.006,-90980.049,-115868.493,-101785.284,-111789.076
2.344,09-22-2026 22:25:57:427,-121628.761,-83241.964,-54847.605,-64764.403,-86321.051,-93225.282,-91169.413,-106546.921
2.348,09-22-2026 22:25:57:431,-121711.909,-83527.351,-66498.228,-74352.81,-86321.051,-90709.369,-88384.922,-103535.471
2.352,09-22-2026 22:25:57:435,-121857.419,-84248.329,-111935.659,-118346.675,-91290.649,-111780.135,-97434.517,-107216.133
2.356,09-22-2026 22:25:57:439,-121898.993,-84428.574,-127081.469,-134139.345,-94603.714,-127504.587,-106136.052,-112792.893
2.36,09-22-2026 22:25:57:443,-121815.845,-83917.881,-94459.724,-103118.03,-92533.048,-117755.427,-103351.561,-113015.963
2.364,09-22-2026 22:25:57:447,-121746.555,-83407.188,-54847.605,-64764.403,-87874.05,-94797.727,-92561.658,-107773.809
2.368,09-22-2026 22:25:57:451,-121822.774,-83692.576,-65915.697,-74352.81,-87770.517,-91652.836,-89429.106,-104650.823
2.372,09-22-2026 22:25:57:455,-121989.071,-84413.553,-111353.128,-117782.652,-92636.581,-112094.624,-98304.671,-108108.414
2.376,09-22-2026 22:25:57:459,-122030.645,-84578.778,-126498.938,-133575.321,-95949.646,-127819.077,-107006.205,-113573.639
2.38,09-22-2026 22:25:57:463,-121961.355,-84083.105,-95042.255,-103682.054,-93878.981,-118384.405,-104395.745,-113796.71
2.384,09-22-2026 22:25:57:467,-121892.064,-83557.392,-55430.136,-65328.427,-89116.45,-95741.194,-93605.842,-108443.02
2.388,09-22-2026 22:25:57:471,-121968.284,-83827.759,-65915.697,-74352.81,-88909.383,-91967.325,-90299.259,-105208.499
2.392,09-22-2026 22:25:57:475,-122134.581,-84548.737,-110770.596,-117218.628,-93775.447,-111780.135,-98826.763,-108666.09
2.396,09-22-2026 22:25:57:479,-122183.084,-84744.002,-127081.469,-134139.345,-97192.046,-127819.077,-107528.297,-114242.85
2.4,09-22-2026 22:25:57:483,-122113.794,-84278.37,-96789.848,-105938.149,-95224.913,-119642.361,-105265.898,-114577.456
2.404,09-22-2026 22:25:57:487,-122047.096,-83781.759,-58473.281,-68053.596,-90579.506,-97798.404,-94960.09,-109682.424
2.408,09-22-2026 22:25:57:491,-122127.965,-84049.086,-67837.276,-75745.86,-90459.79,-94165.754,-91766.249,-106546.072
2.412,09-22-2026 22:25:57:495,-122307.673,-84748.248,-111776.023,-118402.957,-95248.427,-112732.632,-100070.235,-109682.424
2.416,09-22-2026 22:25:57:499,-122370.571,-84974.448,-129063.398,-135885.374,-98720.19,-128877.745,-109012.989,-115217.163
2.42,09-22-2026 22:25:57:503,-122298.687,-84501.485,-99530.798,-107913.507,-96924.451,-121612.444,-106883.762,-115955.128
2.424,09-22-2026 22:25:57:507,-122217.819,-83987.395,-59913.896,-70151.486,-92375.245,-99816.543,-96663.472,-110973.863
2.428,09-22-2026 22:25:57:511,-122289.702,-84254.722,-68557.584,-77144.453,-92135.813,-95376.637,-93043.785,-107837.511
2.432,09-22-2026 22:25:57:515,-122442.454,-84974.448,-112496.33,-119102.254,-96804.735,-113539.888,-101134.849,-111158.354
2.436,09-22-2026 22:25:57:519,-122496.366,-85221.211,-130504.013,-137283.967,-100396.213,-130088.628,-110077.603,-116693.093
2.44,09-22-2026 22:25:57:523,-122433.468,-84789.376,-103132.335,-112109.287,-98720.19,-123630.583,-108161.298,-117615.55
2.444,09-22-2026 22:25:57:527,-122361.585,-84295.849,-64956.047,-75046.563,-94290.7,-103449.193,-98366.853,-113187.759
2.448,09-22-2026 22:25:57:531,-122451.439,-84563.176,-73599.735,-82039.53,-94051.268,-99009.287,-94747.167,-110235.898
2.452,09-22-2026 22:25:57:535,-122640.133,-85282.902,-116818.174,-123997.331,-98600.474,-116768.91,-102625.308,-113556.741
2.456,09-22-2026 22:25:57:539,-122721.001,-85570.793,-136986.779,-143577.638,-102311.668,-133721.278,-111568.062,-119460.463
2.46,09-22-2026 22:25:57:543,-122676.074,-85180.084,-111055.715,-119801.55,-100755.361,-128877.745,-110077.603,-120751.902
2.464,09-22-2026 22:25:57:547,-122613.176,-84707.121,-73599.735,-83438.123,-96325.871,-109503.61,-100496.081,-116693.093
2.468,09-22-2026 22:25:57:551,-122694.045,-84974.448,-81523.115,-89731.793,-95966.723,-105063.704,-96876.394,-114110.215
2.472,09-22-2026 22:25:57:555,-122882.738,-85714.738,-124741.554,-130990.297,-100276.497,-122823.328,-104754.535,-117615.55
2.476,09-22-2026 22:25:57:559,-122963.607,-86002.628,-144910.159,-151969.198,-103867.975,-140179.323,-113910.212,-123703.763
2.48,09-22-2026 22:25:57:563,-122918.68,-85632.483,-119699.403,-128193.111,-102311.668,-136143.045,-113058.521,-125364.184
2.484,09-22-2026 22:25:57:567,-122846.797,-85159.521,-82243.423,-91829.683,-97762.462,-116768.91,-103902.844,-121674.358
2.488,09-22-2026 22:25:57:571,-122927.665,-85406.284,-88726.188,-96724.76,-97283.598,-111925.377,-100921.926,-119091.48
2.492,09-22-2026 22:25:57:575,-123107.373,-86126.01,-130504.013,-137283.967,-101952.52,-128474.117,-109225.912,-122596.815
2.496,09-22-2026 22:25:57:579,-123188.242,-86393.337,-149952.31,-156864.274,-105663.714,-145426.484,-118807.434,-128500.537
2.5,09-22-2026 22:25:57:583,-123143.315,-86002.628,-124741.554,-133088.187,-104346.839,-141390.206,-118381.589,-129976.467
2.504,09-22-2026 22:25:57:587,-123065.576,-85479.776,-85812.013,-95676.15,-99834.916,-121666.804,-109406.604,-126046.583
2.508,09-22-2026 22:25:57:591,-123147.383,-85656.802,-90533.059,-98520.633,-99494.007,-115613.37,-106138.242,-123059.273
2.512,09-22-2026 22:25:57:595,-123332.813,-86329.5,-130661.95,-137205.602,-104153.094,-131224.857,-114223.136,-125865.534
2.516,09-22-2026 22:25:57:599,-123420.074,-86589.138,-150136.265,-157116.983,-108130.364,-147792.148,-123684.183,-131478.057
2.52,09-22-2026 22:25:57:603,-123376.444,-86199.681,-125350.773,-133792.223,-106880.365,-143331.724,-122996.107,-132745.401
2.524,09-22-2026 22:25:57:607,-123305.544,-85656.802,-86402.143,-95676.15,-102448.55,-123578.414,-113707.079,-128490.746
2.528,09-22-2026 22:25:57:611,-123381.898,-85822.026,-89352.797,-97951.737,-101880.369,-116569.175,-109922.661,-125231.862
2.532,09-22-2026 22:25:57:615,-123561.874,-86482.923,-128891.558,-136067.809,-106539.456,-131543.458,-117319.479,-127766.55
2.536,09-22-2026 22:25:57:619,-123643.681,-86742.56,-149546.134,-156548.087,-110516.725,-148110.75,-126436.487,-133107.499
2.54,09-22-2026 22:25:57:623,-123583.689,-86341.302,-124760.643,-133223.326,-109266.726,-143650.325,-125748.411,-134193.794
2.544,09-22-2026 22:25:57:627,-123490.974,-85798.423,-85221.882,-94538.357,-104834.912,-123259.812,-115943.326,-129848.615
2.548,09-22-2026 22:25:57:631,-123545.512,-85940.043,-87582.405,-95676.15,-104039.458,-115613.37,-111470.832,-126318.157
2.552,09-22-2026 22:25:57:635,-123703.673,-86589.138,-126531.035,-133223.326,-108357.636,-130587.653,-118523.612,-128490.746
2.556,09-22-2026 22:25:57:639,-123758.212,-86860.578,-147185.611,-154272.5,-112334.906,-147154.945,-127468.601,-133560.122
2.56,09-22-2026 22:25:57:643,-123676.404,-86459.319,-122400.12,-130947.74,-111084.907,-142375.918,-126436.487,-134555.892
2.564,09-22-2026 22:25:57:647,-123556.42,-85892.837,-82271.228,-91693.874,-106312.183,-121348.202,-116287.365,-130120.189
2.568,09-22-2026 22:25:57:651,-123583.689,-86022.655,-83451.49,-91693.874,-105175.821,-113064.556,-111298.813,-126227.632
2.572,09-22-2026 22:25:57:655,-123709.127,-86648.147,-121219.858,-128103.257,-109493.999,-127401.635,-118007.555,-128038.124
2.576,09-22-2026 22:25:57:659,-123752.758,-86895.983,-141874.435,-148583.534,-113471.268,-143968.927,-127124.563,-132926.45
2.58,09-22-2026 22:25:57:663,-123649.135,-86435.716,-115908.681,-124689.877,-111880.36,-137915.494,-125404.373,-133741.171
2.584,09-22-2026 22:25:57:667,-123501.882,-85822.026,-75189.659,-84867.115,-106653.092,-115613.37,-112846.984,-129033.894
2.588,09-22-2026 22:25:57:671,-123518.243,-85951.845,-77550.182,-86004.908,-105403.093,-107648.326,-105622.185,-124960.288
2.592,09-22-2026 22:25:57:675,-123649.135,-86648.147,-118859.335,-125827.67,-109721.271,-124215.618,-111470.832,-126861.304
2.596,09-22-2026 22:25:57:679,-123703.673,-86978.595,-143054.696,-150290.224,-113925.813,-143650.325,-120243.802,-132292.778
2.6,09-22-2026 22:25:57:683,-123621.866,-86612.742,-121219.858,-129241.05,-112562.178,-140145.706,-118351.593,-133650.647
2.604,09-22-2026 22:25:57:687,-123519.182,-86081.53,-81718.782,-91125.648,-107351.584,-119166.806,-106637.804,-129479.945
2.608,09-22-2026 22:25:57:691,-123574.748,-86242.463,-87035.681,-94778.817,-106241.552,-113232.73,-101598.513,-126120.389
2.612,09-22-2026 22:25:57:695,-123756.602,-86939.837,-131849.543,-138616.847,-111298.366,-133317.293,-110491.378,-129021.824
2.616,09-22-2026 22:25:57:699,-123857.632,-87275.113,-157674.48,-164919.664,-116108.506,-154771.257,-122348.532,-135435.523
2.62,09-22-2026 22:25:57:703,-123817.22,-86899.604,-134128.214,-143000.65,-114751.8,-151575.986,-121755.674,-137573.423
2.624,09-22-2026 22:25:57:707,-123756.602,-86363.162,-93112.137,-102085.155,-109201.638,-128752.619,-109602.092,-133755.745
2.628,09-22-2026 22:25:57:711,-123857.632,-86604.561,-99948.15,-107930.226,-108338.28,-123731.479,-103673.515,-131007.016
2.632,09-22-2026 22:25:57:715,-124049.589,-87382.402,-149319.354,-155421.425,-114135.115,-147011.312,-114344.953,-134824.694
2.636,09-22-2026 22:25:57:719,-124120.31,-87677.445,-173625.177,-180262.975,-119315.266,-169834.679,-128573.537,-142001.929
2.64,09-22-2026 22:25:57:723,-124029.383,-87181.236,-143242.898,-151768.255,-117588.549,-162074.734,-128573.537,-143834.414
2.644,09-22-2026 22:25:57:727,-123903.096,-86524.095,-93871.694,-103546.423,-111175.029,-133773.76,-115530.669,-138642.372
2.648,09-22-2026 22:25:57:731,-123933.405,-86698.438,-97669.479,-106468.958,-109941.66,-125100.881,-110787.807,-134671.987
2.652,09-22-2026 22:25:57:735,-124074.846,-87462.868,-147800.24,-153960.157,-115985.169,-147924.247,-123237.818,-137878.837
2.656,09-22-2026 22:25:57:739,-124105.155,-87731.089,-171346.506,-178071.073,-121165.32,-169834.679,-137466.402,-144597.95
2.66,09-22-2026 22:25:57:743,-124004.125,-87208.058,-137925.999,-146653.819,-118945.255,-159792.398,-135094.972,-145514.193
2.664,09-22-2026 22:25:57:747,-123877.838,-86524.095,-84757.01,-94778.817,-111791.713,-127839.685,-118494.957,-139405.908
2.668,09-22-2026 22:25:57:751,-123928.353,-86711.849,-90073.909,-98431.986,-110435.007,-118710.338,-111973.523,-134671.987
2.672,09-22-2026 22:25:57:755,-124079.898,-87503.101,-142483.341,-148845.72,-116601.854,-142903.107,-124719.962,-137573.423
2.676,09-22-2026 22:25:57:759,-124125.361,-87757.911,-166789.164,-173687.27,-121905.341,-166182.94,-139244.975,-144292.536
2.68,09-22-2026 22:25:57:763,-124024.331,-87208.058,-131089.986,-140078.114,-119315.266,-154771.257,-135391.401,-144903.364
2.684,09-22-2026 22:25:57:767,-123908.147,-86510.683,-77161.441,-87472.479,-111668.377,-120992.675,-116716.384,-138031.544
2.688,09-22-2026 22:25:57:771,-123968.765,-86711.849,-82478.339,-91125.648,-109941.66,-111863.328,-108712.805,-132686.795
2.692,09-22-2026 22:25:57:775,-124125.361,-87516.512,-136406.885,-143000.65,-116231.843,-137425.499,-122052.103,-135588.23
2.696,09-22-2026 22:25:57:779,-124160.722,-87784.733,-162231.822,-169303.467,-121658.668,-161618.267,-137466.402,-142154.636
2.7,09-22-2026 22:25:57:783,-124049.589,-87221.469,-125773.087,-134233.044,-118821.918,-149293.649,-132723.541,-142460.05
2.704,09-22-2026 22:25:57:787,-123907.745,-86487.035,-68475.821,-79285.706,-110636.62,-114107.98,-112127.66,-135023.267
2.708,09-22-2026 22:25:57:791,-123943.15,-86687.486,-73999.25,-82324.291,-108486.203,-104161.051,-103014.899,-128966.392
2.712,09-22-2026 22:25:57:795,-124076.903,-87489.288,-129233.54,-135499.538,-114630.251,-130337.179,-116485.937,-131638.543
2.716,09-22-2026 22:25:57:799,-124096.572,-87784.688,-156061.623,-162846.808,-120159.894,-155466.262,-132730.425,-138407.992
2.72,09-22-2026 22:25:57:803,-123978.555,-87214.987,-119764.804,-128662.721,-117087.87,-143425.243,-127579.734,-138586.135
2.724,09-22-2026 22:25:57:807,-123844.802,-86487.035,-63741.453,-73968.181,-108639.805,-108349.232,-104995.934,-131104.112
2.728,09-22-2026 22:25:57:811,-123880.207,-86687.486,-69264.882,-77766.413,-106335.787,-98925.826,-95486.965,-125225.38
2.732,09-22-2026 22:25:57:815,-124010.026,-87499.838,-125288.233,-131701.306,-112633.435,-126148.999,-110542.832,-128075.675
2.736,09-22-2026 22:25:57:819,-124021.828,-87774.138,-153694.439,-159808.223,-118470.281,-152325.127,-128768.355,-134845.124
2.74,09-22-2026 22:25:57:823,-123888.075,-87193.887,-117397.62,-126383.782,-115398.257,-140284.108,-123617.664,-135201.411
2.744,09-22-2026 22:25:57:827,-123730.719,-86455.385,-60585.208,-70929.595,-106796.59,-104684.574,-99845.242,-127719.388
2.748,09-22-2026 22:25:57:831,-123754.322,-86645.286,-65319.576,-74727.827,-104338.971,-95261.168,-89940.067,-121840.655
2.752,09-22-2026 22:25:57:835,-123888.075,-87447.087,-122131.988,-127903.074,-110790.221,-123007.864,-106184.555,-124690.95
2.756,09-22-2026 22:25:57:839,-123907.745,-87742.488,-150538.194,-157529.283,-116780.668,-149183.991,-125994.906,-131638.543
2.76,09-22-2026 22:25:57:843,-123789.728,-87183.337,-115030.437,-123345.196,-113708.644,-137666.495,-120844.215,-132172.973
2.764,09-22-2026 22:25:57:847,-123648.107,-86444.835,-57428.963,-67891.01,-104953.376,-101543.439,-95883.172,-124690.95
2.768,09-22-2026 22:25:57:851,-123683.512,-86634.736,-62163.331,-70929.595,-102495.757,-91596.51,-85581.79,-118812.218
2.772,09-22-2026 22:25:57:855,-123829.067,-87447.087,-118186.682,-124864.489,-108947.007,-119343.206,-102618.692,-121662.512
2.776,09-22-2026 22:25:57:859,-123864.472,-87753.038,-148171.01,-154490.698,-115091.054,-146566.379,-123617.664,-128788.248
2.78,09-22-2026 22:25:57:863,-123750.388,-87204.437,-112663.253,-121825.903,-112172.632,-135048.882,-118070.766,-129500.822
2.784,09-22-2026 22:25:57:867,-123600.9,-86476.485,-55850.84,-66371.717,-103263.763,-98925.826,-92713.516,-122018.799
2.788,09-22-2026 22:25:57:871,-123632.371,-86655.836,-59007.085,-67891.01,-100652.543,-88978.897,-82412.134,-115961.923
2.792,09-22-2026 22:25:57:875,-123789.728,-87457.637,-115030.437,-121066.257,-106950.191,-116202.07,-99449.035,-118812.218
2.796,09-22-2026 22:25:57:879,-123840.868,-87784.688,-145803.827,-152211.759,-113247.84,-143948.766,-120844.215,-126116.097
2.8,09-22-2026 22:25:57:883,-123726.785,-87257.187,-111085.13,-119546.964,-110483.019,-132954.792,-116089.73,-126828.671
2.804,09-22-2026 22:25:57:887,-123572.513,-86533.348,-53830.332,-64062.156,-101603.967,-96768.167,-90208.377,-119340.702
2.808,09-22-2026 22:25:57:891,-123593.166,-86704.473,-56034.974,-64778.753,-98752.645,-86085.643,-79426.209,-113092.227
2.812,09-22-2026 22:25:57:895,-123727.411,-87513.427,-111151.023,-117806.926,-104905.499,-113277.523,-96900.758,-115770.145
2.816,09-22-2026 22:25:57:899,-123768.717,-87871.234,-142750.891,-149337.19,-111358.492,-141440.543,-118836.894,-123357.579
2.82,09-22-2026 22:25:57:903,-123648.241,-87357.859,-109681.262,-118523.522,-108657.239,-130758.018,-114003.508,-124101.445
2.824,09-22-2026 22:25:57:907,-123486.459,-86626.689,-52360.571,-62628.962,-99803.132,-94825.89,-87977.584,-116662.784
2.828,09-22-2026 22:25:57:911,-123503.67,-86797.814,-53830.332,-62628.962,-96651.67,-83657.796,-76451.817,-110414.31
2.832,09-22-2026 22:25:57:915,-123644.799,-87606.768,-108211.5,-114223.941,-102804.524,-110849.677,-94298.165,-112943.454
2.836,09-22-2026 22:25:57:919,-123696.431,-87980.132,-140546.249,-147187.4,-109407.587,-139498.265,-116977.899,-120530.888
2.84,09-22-2026 22:25:57:923,-123586.282,-87482.314,-108211.5,-116373.732,-106856.404,-129301.31,-112516.312,-121572.3
2.844,09-22-2026 22:25:57:927,-123427.942,-86766.7,-50890.809,-61195.768,-97852.227,-93369.182,-85746.79,-114133.64
2.848,09-22-2026 22:25:57:931,-123448.595,-86922.269,-51625.69,-60479.171,-94700.765,-81715.519,-74221.024,-107885.165
2.852,09-22-2026 22:25:57:935,-123586.282,-87731.223,-105271.978,-111357.553,-101003.689,-108421.83,-92067.372,-110563.083
2.856,09-22-2026 22:25:57:939,-123641.357,-88104.586,-139076.488,-145037.609,-107756.821,-137555.988,-115490.704,-118299.29
2.86,09-22-2026 22:25:57:943,-123527.765,-87606.768,-106741.739,-115657.135,-105355.707,-127359.033,-111029.117,-119489.475
2.864,09-22-2026 22:25:57:947,-123365.983,-86891.155,-50155.929,-60479.171,-96501.6,-91912.474,-84631.394,-112348.361
2.868,09-22-2026 22:25:57:951,-123379.752,-87046.723,-50155.929,-59045.977,-93350.138,-80258.811,-72362.029,-106099.886
2.872,09-22-2026 22:25:57:955,-123527.765,-87855.677,-103802.217,-109924.359,-99502.993,-106965.122,-90580.176,-108926.577
2.876,09-22-2026 22:25:57:959,-123589.724,-88260.155,-137606.727,-144321.012,-106556.264,-136584.85,-114747.106,-116960.331
2.88,09-22-2026 22:25:57:963,-123486.459,-87809.007,-106741.739,-115657.135,-104305.22,-127359.033,-110657.318,-118448.063
2.884,09-22-2026 22:25:57:967,-123331.561,-87108.95,-50155.929,-60479.171,-95451.113,-91912.474,-83887.796,-111455.722
2.888,09-22-2026 22:25:57:971,-123355.657,-87280.075,-49421.048,-58329.381,-92299.651,-79773.242,-71618.431,-105207.247
2.892,09-22-2026 22:25:57:975,-123507.112,-88089.03,-101597.575,-108491.165,-98452.505,-105508.415,-89464.779,-107885.165
2.896,09-22-2026 22:25:57:979,-123582.84,-88509.064,-137606.727,-144321.012,-105655.847,-136099.28,-114747.106,-116067.692
2.9,09-22-2026 22:25:57:983,-123483.017,-88057.916,-107476.62,-115657.135,-103704.942,-127359.033,-111029.117,-117852.97
2.904,09-22-2026 22:25:57:987,-123318.732,-87364.61,-50114.444,-60395.889,-95006.984,-91923.293,-84115.381,-110955.356
2.908,09-22-2026 22:25:57:991,-123329.55,-87506.767,-48667.392,-57586.006,-91756.057,-79529.876,-71315.208,-104646.442
2.912,09-22-2026 22:25:57:995,-123470.187,-88288.631,-100761.262,-107461.421,-97882.804,-105234.74,-89601.17,-107558.248
2.916,09-22-2026 22:25:57:999,-123540.506,-88729.318,-137661.086,-143989.893,-105509.979,-135988.773,-115201.517,-115929.692
2.92,09-22-2026 22:25:58:003,-123437.732,-88274.415,-107996.521,-116593.539,-103759.48,-128185.511,-111910.044,-117870.896
2.924,09-22-2026 22:25:58:007,-123264.64,-87549.414,-50837.97,-61800.83,-95132.02,-92841.323,-84846.82,-110955.356
2.928,09-22-2026 22:25:58:011,-123264.64,-87648.924,-48667.392,-57586.006,-91756.057,-79529.876,-71315.208,-104646.442
2.932,09-22-2026 22:25:58:015,-123399.868,-88416.572,-100761.262,-107461.421,-98007.84,-105234.74,-89601.17,-107436.923
2.936,09-22-2026 22:25:58:019,-123464.778,-88843.043,-138384.612,-145394.834,-105885.086,-136447.789,-115932.955,-116051.017
2.94,09-22-2026 22:25:58:023,-123351.186,-88373.925,-110167.099,-118700.951,-104384.658,-129103.542,-113007.201,-118234.872
2.944,09-22-2026 22:25:58:027,-123167.276,-87620.492,-52285.022,-62503.301,-95632.162,-94218.37,-85943.977,-111440.657
2.948,09-22-2026 22:25:58:031,-123151.049,-87705.787,-48667.392,-57586.006,-92006.128,-79988.891,-72046.646,-104767.767
2.952,09-22-2026 22:25:58:035,-123270.049,-88459.219,-100761.262,-106758.95,-98382.947,-105693.755,-90332.608,-107679.574
2.956,09-22-2026 22:25:58:039,-123329.55,-88914.122,-139831.664,-146097.305,-106510.264,-137365.819,-117030.113,-116657.644
2.96,09-22-2026 22:25:58:043,-123205.14,-88459.219,-111614.151,-120105.892,-105134.872,-130480.588,-114470.078,-119084.149
2.964,09-22-2026 22:25:58:047,-123010.412,-87734.218,-53732.074,-63908.242,-96382.376,-95595.416,-87406.854,-112168.609
2.968,09-22-2026 22:25:58:051,-122983.366,-87805.297,-48667.392,-57586.006,-92506.271,-80447.907,-72778.085,-105374.394
2.972,09-22-2026 22:25:58:055,-123113.185,-88587.161,-100037.736,-106758.95,-98758.054,-105693.755,-90698.328,-108164.875
2.976,09-22-2026 22:25:58:059,-123178.094,-89056.279,-140555.19,-146799.776,-107010.407,-137824.835,-117761.551,-117142.945
2.98,09-22-2026 22:25:58:063,-123059.094,-88615.592,-113061.203,-121510.833,-105635.015,-131857.634,-115567.236,-119812.101
2.984,09-22-2026 22:25:58:067,-122875.184,-87876.375,-54455.6,-65313.183,-96507.412,-96972.462,-88504.012,-112896.56
2.988,09-22-2026 22:25:58:071,-122853.547,-87933.238,-48667.392,-57586.006,-92506.271,-80906.922,-73509.523,-105859.695
2.992,09-22-2026 22:25:58:075,-122983.366,-88686.671,-99314.21,-106056.479,-98883.089,-105234.74,-90698.328,-108407.525
2.996,09-22-2026 22:25:58:079,-123064.503,-89170.005,-140555.19,-146799.776,-107635.585,-137824.835,-117761.551,-117506.92
3,09-22-2026 22:25:58:083,-122956.32,-88743.533,-113784.729,-122213.304,-106385.229,-132316.65,-116298.674,-120054.751
3.004,09-22-2026 22:25:58:087,-122770.89,-87986.077,-55260.397,-65490.209,-97102.639,-97268.176,-89029.949,-113107.292
3.008,09-22-2026 22:25:58:091,-122751.489,-88018.13,-47150.737,-56037.567,-92658.575,-80533.335,-73291.951,-105766.622
3.012,09-22-2026 22:25:58:095,-122890.07,-88776.703,-97430.628,-104088.498,-98941.561,-104367.805,-89837.025,-108060.581
3.016,09-22-2026 22:25:58:099,-122987.076,-89268.173,-139600.86,-145837.667,-107676.444,-136823.253,-116874.098,-117236.42
3.02,09-22-2026 22:25:58:103,-122895.613,-88840.808,-113649.948,-121418.342,-106450.496,-131752.089,-115663.483,-119836.24
3.024,09-22-2026 22:25:58:107,-122721.001,-88082.235,-54449.431,-64702.489,-97102.639,-96761.059,-88626.41,-112801.431
3.028,09-22-2026 22:25:58:111,-122715.458,-88103.603,-45528.805,-54462.126,-92352.088,-79519.103,-72484.874,-105307.83
3.032,09-22-2026 22:25:58:115,-122865.125,-88851.492,-95808.696,-102513.057,-98481.831,-102846.456,-88626.41,-107448.859
3.036,09-22-2026 22:25:58:119,-122973.218,-89342.962,-138789.894,-145049.947,-107369.957,-135809.02,-115663.483,-116624.697
3.04,09-22-2026 22:25:58:123,-122881.755,-88904.913,-112838.982,-120630.621,-105990.765,-130737.857,-114856.406,-119224.518
3.044,09-22-2026 22:25:58:127,-122707.143,-88124.971,-53638.465,-63914.769,-96489.664,-95746.827,-87819.333,-112036.778
3.048,09-22-2026 22:25:58:131,-122693.285,-88114.287,-43095.907,-52098.966,-91432.627,-77997.753,-70870.721,-104237.316
3.052,09-22-2026 22:25:58:135,-122848.496,-88840.808,-92564.832,-99362.177,-97409.126,-100310.874,-86608.718,-106225.414
3.056,09-22-2026 22:25:58:139,-122962.132,-89342.962,-136356.996,-142686.786,-106297.252,-133780.555,-113645.791,-115248.321
3.06,09-22-2026 22:25:58:143,-122881.755,-88894.229,-110406.084,-119055.181,-104918.06,-128709.391,-112838.714,-117848.142
3.064,09-22-2026 22:25:58:147,-122721.001,-88114.287,-51205.567,-61551.608,-95263.716,-94225.477,-85801.641,-110660.402
3.068,09-22-2026 22:25:58:151,-122715.458,-88082.235,-39852.043,-48948.085,-89900.191,-74955.055,-68449.49,-102555.079
3.072,09-22-2026 22:25:58:155,-122881.755,-88798.072,-89320.968,-95423.576,-95723.447,-97268.176,-83380.411,-104237.316
3.076,09-22-2026 22:25:58:159,-123006.478,-89310.91,-133113.132,-139535.906,-104764.817,-130737.857,-110821.022,-113260.223
3.08,09-22-2026 22:25:58:163,-122931.644,-88872.861,-107973.186,-116692.02,-103385.625,-126173.809,-110417.483,-115860.044
3.084,09-22-2026 22:25:58:167,-122768.119,-88071.55,-48772.669,-59188.447,-93731.28,-91689.896,-83380.411,-108672.304
3.088,09-22-2026 22:25:58:171,-122762.575,-88028.814,-36608.179,-45797.204,-88214.512,-72419.473,-65624.722,-100414.05
3.092,09-22-2026 22:25:58:175,-122920.558,-88733.967,-84455.172,-91484.975,-93731.28,-93211.245,-80152.104,-101484.564
3.096,09-22-2026 22:25:58:179,-123042.509,-89257.489,-129869.268,-136385.025,-102772.65,-127188.042,-107996.253,-109589.888
3.1,09-22-2026 22:25:58:183,-122964.903,-88819.44,-105540.288,-114328.86,-101546.702,-123638.227,-107592.715,-112342.639
3.104,09-22-2026 22:25:58:187,-122797.712,-88015.939,-46138.113,-56547.276,-91918.956,-89036.118,-81145.505,-105993.313
3.108,09-22-2026 22:25:58:191,-122777.328,-87954.696,-32887.284,-41785.29,-86059.446,-69100.284,-62206.961,-97680.476
3.112,09-22-2026 22:25:58:195,-122920.021,-88640.626,-80093.364,-86848.195,-91416.713,-89522.358,-76410.869,-98436.189
3.116,09-22-2026 22:25:58:199,-123034.686,-89167.322,-126471.266,-132688.046,-100457.099,-123559.147,-104424.131,-106749.026
3.12,09-22-2026 22:25:58:203,-122950.598,-88750.865,-103282.315,-111710.487,-99620.026,-120641.708,-104818.684,-110074.161
3.124,09-22-2026 22:25:58:207,-122774.78,-87954.696,-44481.76,-54993.383,-89909.981,-87091.158,-78778.187,-103877.318
3.128,09-22-2026 22:25:58:211,-122749.299,-87868.954,-29574.577,-38677.503,-83883.057,-66182.845,-59445.09,-95564.481
3.132,09-22-2026 22:25:58:215,-122886.896,-88554.885,-76780.656,-83740.408,-89240.323,-86604.918,-73648.998,-96017.909
3.136,09-22-2026 22:25:58:219,-123006.657,-89106.079,-124814.913,-131134.153,-98615.539,-121614.188,-102056.813,-104633.031
3.14,09-22-2026 22:25:58:223,-122922.569,-88689.621,-102454.138,-110156.594,-97778.466,-119182.988,-103240.472,-108260.451
3.144,09-22-2026 22:25:58:227,-122751.847,-87893.452,-41169.052,-53439.489,-88235.836,-85632.439,-76805.422,-102063.608
3.148,09-22-2026 22:25:58:231,-122723.818,-87795.462,-25433.692,-36346.663,-82041.497,-64237.885,-57472.325,-93599.629
3.152,09-22-2026 22:25:58:235,-122866.511,-88469.143,-74296.126,-81409.568,-87231.348,-84173.719,-71281.68,-94053.056
3.156,09-22-2026 22:25:58:239,-122993.916,-89020.337,-122330.382,-128803.313,-96773.979,-119182.988,-100084.049,-102668.178
3.16,09-22-2026 22:25:58:243,-122922.569,-88616.128,-100797.784,-109379.647,-96104.32,-117238.029,-101267.707,-106446.741
3.164,09-22-2026 22:25:58:247,-122756.943,-87807.711,-39512.699,-52662.543,-86729.105,-84173.719,-75621.763,-100401.041
3.168,09-22-2026 22:25:58:251,-122726.366,-87697.472,-22120.985,-34792.77,-80367.351,-62779.166,-55499.56,-91937.061
3.172,09-22-2026 22:25:58:255,-122866.511,-88358.905,-71811.595,-78301.782,-85557.203,-82228.76,-68914.362,-92239.346
3.176,09-22-2026 22:25:58:259,-122993.916,-88934.596,-121502.205,-127249.42,-95099.833,-117238.029,-98111.284,-101005.611
3.18,09-22-2026 22:25:58:263,-122917.473,-88530.387,-100797.784,-108602.701,-94765.004,-116265.549,-100478.602,-105086.458
3.184,09-22-2026 22:25:58:267,-122749.299,-87734.218,-38684.522,-52662.543,-85389.788,-83687.479,-74832.657,-99343.043
3.188,09-22-2026 22:25:58:271,-122711.077,-87611.73,-21292.808,-34015.823,-79195.449,-61806.686,-54710.454,-90879.064
3.192,09-22-2026 22:25:58:275,-122846.126,-88273.163,-70155.242,-76747.889,-84217.886,-80770.04,-67730.703,-91181.349
3.196,09-22-2026 22:25:58:279,-122968.435,-88861.104,-120674.028,-126472.473,-93927.931,-116265.549,-97322.178,-100098.756
3.2,09-22-2026 22:25:58:283,-122889.444,-88493.641,-100797.784,-109379.647,-93760.516,-116265.549,-100084.049,-104481.888
3.204,09-22-2026 22:25:58:287,-122715.547,-87702.434,-39861.833,-52922.538,-84690.134,-84103.043,-74820.945,-98988.858
3.208,09-22-2026 22:25:58:291,-122675.493,-87564.568,-21316.412,-33955.027,-78381.488,-61809.592,-54541.475,-90628.545
3.212,09-22-2026 22:25:58:295,-122805.67,-88230.918,-69365.912,-75841.615,-83305.309,-80049.688,-67054.339,-90792.473
3.216,09-22-2026 22:25:58:299,-122935.846,-88839.825,-120787.307,-126421.645,-93306.821,-116529.881,-97257.805,-99808.496
3.22,09-22-2026 22:25:58:303,-122863.248,-88472.183,-102241.886,-110615.386,-93460.69,-117036.55,-100709.629,-104398.472
3.224,09-22-2026 22:25:58:307,-122693.017,-87690.945,-41547.78,-54503.164,-84536.264,-85116.382,-75683.901,-99316.713
3.228,09-22-2026 22:25:58:311,-122652.963,-87553.079,-22159.385,-34745.34,-78227.619,-62316.261,-54972.953,-90956.401
3.232,09-22-2026 22:25:58:315,-122785.642,-88219.43,-70208.886,-76631.928,-83151.44,-81063.027,-67917.295,-91284.256
3.236,09-22-2026 22:25:58:319,-122918.322,-88839.825,-122473.254,-128002.271,-93306.821,-117543.22,-98120.761,-100464.207
3.24,09-22-2026 22:25:58:323,-122850.731,-88495.161,-104770.807,-112196.012,-93768.429,-118556.558,-102004.063,-105382.038
3.244,09-22-2026 22:25:58:327,-122683.003,-87725.411,-45762.649,-57664.416,-85151.742,-87143.059,-77409.813,-100464.207
3.248,09-22-2026 22:25:58:331,-122640.446,-87564.568,-24688.306,-35535.653,-78689.227,-63836.269,-56267.387,-92103.895
3.252,09-22-2026 22:25:58:335,-122770.622,-88230.918,-71051.859,-78212.554,-83613.048,-82076.366,-68780.252,-92431.75
3.256,09-22-2026 22:25:58:339,-122905.805,-88874.291,-124159.202,-130373.21,-93922.298,-119063.228,-99846.673,-101611.701
3.26,09-22-2026 22:25:58:343,-122835.71,-88552.605,-107299.728,-115357.264,-94691.645,-121089.905,-104161.454,-106857.387
3.264,09-22-2026 22:25:58:347,-122667.983,-87782.855,-50820.491,-60825.668,-86228.828,-90183.075,-80430.16,-102267.412
3.268,09-22-2026 22:25:58:351,-122622.922,-87622.012,-28903.175,-38696.905,-79920.182,-66369.616,-58856.256,-94234.955
3.272,09-22-2026 22:25:58:355,-122753.098,-88276.874,-72737.807,-79793.18,-84690.134,-84103.043,-70937.642,-94890.665
3.276,09-22-2026 22:25:58:359,-122890.785,-88943.224,-126688.123,-132744.149,-95307.123,-121089.905,-102004.063,-104726.327
3.28,09-22-2026 22:25:58:363,-122825.697,-88633.026,-111514.597,-119308.829,-96230.34,-124129.921,-107181.8,-109808.086
3.284,09-22-2026 22:25:58:367,-122662.976,-87874.766,-55035.359,-64777.233,-87921.391,-93729.76,-83450.506,-104726.327
3.288,09-22-2026 22:25:58:371,-122617.915,-87690.945,-31432.096,-41067.844,-81458.876,-69409.632,-61445.124,-96202.087
3.292,09-22-2026 22:25:58:375,-122753.098,-88345.806,-74423.754,-81373.806,-86228.828,-86129.72,-73095.032,-96857.798
3.296,09-22-2026 22:25:58:379,-122900.799,-89012.157,-128374.07,-134324.775,-96691.948,-123116.582,-104161.454,-106365.604
3.3,09-22-2026 22:25:58:383,-122845.724,-88713.448,-114043.518,-121679.768,-97769.034,-126156.598,-109339.191,-111447.362
3.304,09-22-2026 22:25:58:387,-122687.384,-87948.482,-57356.364,-66577.353,-89449.848,-95652.815,-85666.995,-106407.446
3.308,09-22-2026 22:25:58:391,-122641.518,-87742.086,-32388.214,-41737.681,-82634.176,-70448.765,-63179.62,-97798.896
3.312,09-22-2026 22:25:58:395,-122771.471,-88372.137,-73741.713,-80878.983,-86959.507,-86487.706,-73647.88,-97429.958
3.316,09-22-2026 22:25:58:399,-122921.809,-89034.777,-127579.287,-133569.197,-97314.086,-123148.143,-103889.522,-105915.529
3.32,09-22-2026 22:25:58:403,-122865.751,-88730.614,-113534.702,-121525.719,-98362.651,-125897.676,-109317.509,-110957.68
3.324,09-22-2026 22:25:58:407,-122707.769,-87959.345,-56576.11,-66577.353,-89974.131,-95652.815,-85666.995,-106407.446
3.328,09-22-2026 22:25:58:411,-122654.259,-87720.36,-30827.705,-40232.246,-82634.176,-69532.254,-62016.48,-97552.937
3.332,09-22-2026 22:25:58:415,-122784.212,-88339.548,-70620.694,-77868.113,-86828.436,-84654.684,-72097.027,-96815.061
3.336,09-22-2026 22:25:58:419,-122937.098,-89002.188,-126018.778,-132063.762,-97051.945,-120856.866,-102338.669,-105177.653
3.34,09-22-2026 22:25:58:423,-122883.588,-88698.025,-111974.193,-120020.285,-98231.581,-124981.165,-108542.083,-110342.784
3.344,09-22-2026 22:25:58:427,-122723.058,-87926.756,-55795.855,-65824.636,-89711.99,-94736.304,-84503.854,-105792.55
3.348,09-22-2026 22:25:58:431,-122666.999,-87687.771,-29267.195,-38726.811,-82240.964,-68157.487,-60853.34,-96815.061
3.352,09-22-2026 22:25:58:435,-122791.856,-88296.096,-69060.185,-76362.679,-86173.083,-82821.662,-70158.46,-95831.227
3.356,09-22-2026 22:25:58:439,-122942.194,-88969.599,-124458.268,-130558.328,-96527.662,-119482.099,-101175.529,-104316.798
3.36,09-22-2026 22:25:58:443,-122888.684,-88676.299,-111974.193,-119267.567,-97707.298,-124064.654,-107378.943,-109604.908
3.364,09-22-2026 22:25:58:447,-122730.702,-87915.893,-56576.11,-65824.636,-89449.848,-94278.049,-84116.141,-105300.633
3.368,09-22-2026 22:25:58:451,-122674.644,-87655.182,-28486.941,-37974.094,-81716.681,-67699.232,-60077.913,-96446.123
3.372,09-22-2026 22:25:58:455,-122802.049,-88252.644,-67499.675,-74857.244,-85517.73,-81446.896,-68995.32,-95339.31
3.376,09-22-2026 22:25:58:459,-122957.483,-88937.01,-123678.014,-129805.61,-95872.309,-118565.588,-100012.389,-103701.902
3.38,09-22-2026 22:25:58:463,-122911.617,-88676.299,-112754.448,-120020.285,-97445.157,-124064.654,-107378.943,-109358.95
3.384,09-22-2026 22:25:58:467,-122753.635,-87915.893,-57356.364,-67330.07,-89318.778,-94736.304,-84503.854,-105300.633
3.388,09-22-2026 22:25:58:471,-122692.48,-87655.182,-28486.941,-37974.094,-81716.681,-67699.232,-60077.913,-96446.123
3.392,09-22-2026 22:25:58:475,-122814.789,-88241.781,-66719.421,-74104.527,-85386.659,-81446.896,-68607.607,-95339.31
3.396,09-22-2026 22:25:58:479,-122965.127,-88947.873,-123678.014,-129805.61,-95741.239,-118565.588,-100012.389,-103701.902
3.4,09-22-2026 22:25:58:483,-122919.261,-88687.162,-113534.702,-120773.002,-97445.157,-124522.909,-107766.656,-109481.929
3.404,09-22-2026 22:25:58:487,-122760.564,-87936.099,-58629.564,-68485.209,-89543.681,-95942.494,-85133.861,-105714.006
3.408,09-22-2026 22:25:58:491,-122697.979,-87661.172,-29076.58,-38586.04,-81888.924,-68461.247,-60460.217,-96868.616
3.412,09-22-2026 22:25:58:495,-122820.019,-88244.017,-66965.022,-74319.193,-85432.793,-81478.68,-68684.765,-95662.426
3.416,09-22-2026 22:25:58:499,-122976.482,-88958.825,-123797.685,-129742.042,-95922.645,-119084.596,-100349.274,-104105.753
3.42,09-22-2026 22:25:58:503,-122932.672,-88705.893,-114704.459,-121720.314,-97765.457,-125352.249,-108573.822,-110002.68
3.424,09-22-2026 22:25:58:507,-122782.469,-87958.093,-60145.102,-69943.705,-89968.945,-96906.748,-85956.316,-106250.09
3.428,09-22-2026 22:25:58:511,-122716.754,-87650.175,-29076.58,-38586.04,-82172.433,-68943.375,-60871.444,-97270.679
3.432,09-22-2026 22:25:58:515,-122841.924,-88233.019,-66207.253,-73589.945,-85574.548,-81478.68,-68684.765,-95930.469
3.436,09-22-2026 22:25:58:519,-123004.645,-88947.828,-123797.685,-129742.042,-95922.645,-118602.469,-100349.274,-104239.774
3.44,09-22-2026 22:25:58:523,-122973.352,-88705.893,-114704.459,-122449.562,-98048.967,-125834.376,-108985.05,-110270.722
3.444,09-22-2026 22:25:58:527,-122829.407,-87969.09,-60902.871,-70672.953,-90252.455,-97388.875,-86778.77,-106518.132
3.448,09-22-2026 22:25:58:531,-122766.822,-87650.175,-29076.58,-38586.04,-82314.188,-68943.375,-60460.217,-97404.7
3.452,09-22-2026 22:25:58:535,-122888.863,-88211.025,-64691.715,-72131.449,-85432.793,-80514.426,-68273.538,-95662.426
3.456,09-22-2026 22:25:58:539,-123051.584,-88936.831,-122282.147,-128283.546,-95780.891,-117638.215,-99526.82,-103971.732
3.46,09-22-2026 22:25:58:543,-123017.162,-88716.89,-115462.228,-123178.81,-98048.967,-125834.376,-108985.05,-110136.701
3.464,09-22-2026 22:25:58:547,-122870.087,-87980.087,-62418.409,-72131.449,-90535.964,-97871.002,-87189.998,-106652.153
3.468,09-22-2026 22:25:58:551,-122798.115,-87661.172,-29076.58,-38586.04,-82455.943,-68943.375,-60871.444,-97672.742
3.472,09-22-2026 22:25:58:555,-122910.768,-88222.022,-64691.715,-72131.449,-85574.548,-80996.553,-68273.538,-96064.49
3.476,09-22-2026 22:25:58:559,-123070.359,-88969.822,-123797.685,-129742.042,-96064.4,-118602.469,-100349.274,-104507.816
3.48,09-22-2026 22:25:58:563,-123032.808,-88771.875,-117735.534,-125366.554,-98615.986,-127280.757,-110218.732,-111074.848
3.484,09-22-2026 22:25:58:567,-122882.604,-88057.067,-65449.484,-75048.441,-91528.248,-100763.765,-89246.135,-107992.364
3.488,09-22-2026 22:25:58:571,-122810.632,-87727.155,-31349.886,-41503.032,-83589.981,-71354.01,-62927.581,-99280.995
3.492,09-22-2026 22:25:58:575,-122926.414,-88299.002,-66207.253,-73589.945,-86566.831,-82442.934,-69918.447,-97538.721
3.496,09-22-2026 22:25:58:579,-123092.264,-89046.802,-125313.222,-131200.538,-97198.438,-120530.977,-101994.184,-105982.048
3.5,09-22-2026 22:25:58:583,-123067.23,-88881.846,-120766.609,-128283.546,-99891.779,-129691.393,-112686.096,-112683.101
3.504,09-22-2026 22:25:58:587,-122927.442,-88175.844,-69133.901,-78791.061,-92953.619,-103463.185,-92215.162,-109948.276
3.508,09-22-2026 22:25:58:591,-122852.698,-87825.234,-34022.708,-43721.174,-85072.349,-74095.005,-65481.447,-101039.317
3.512,09-22-2026 22:25:58:595,-122970.715,-88379.423,-67670.935,-75284.073,-87837.707,-84035.004,-71680.569,-99208.71
3.516,09-22-2026 22:25:58:599,-123143.807,-89137.192,-126189.59,-132097.29,-98346.066,-121535.912,-103451.071,-107263.384
3.52,09-22-2026 22:25:58:603,-123124.137,-88967.543,-122532.174,-129993.097,-101249.692,-131475.911,-114686.98,-113975.613
3.524,09-22-2026 22:25:58:607,-122986.451,-88255.014,-70596.867,-80193.857,-94336.297,-105270.458,-93764.942,-111168.681
3.528,09-22-2026 22:25:58:611,-122915.64,-87893.094,-34754.191,-44422.572,-86178.492,-74998.641,-66643.782,-102137.682
3.532,09-22-2026 22:25:58:615,-123037.591,-88424.663,-66939.451,-74582.675,-88805.582,-84486.822,-72068.014,-99818.912
3.536,09-22-2026 22:25:58:619,-123210.683,-89182.432,-126189.59,-132097.29,-99175.674,-121535.912,-103451.071,-107751.546
3.54,09-22-2026 22:25:58:623,-123191.014,-89024.092,-123263.657,-130694.494,-102079.299,-131475.911,-114686.98,-114341.735
3.544,09-22-2026 22:25:58:627,-123053.327,-88311.564,-71328.35,-80895.255,-95165.905,-105722.276,-94152.387,-111534.803
3.548,09-22-2026 22:25:58:631,-122978.583,-87915.714,-33291.225,-43019.777,-86731.563,-74546.823,-66256.337,-102259.723
3.552,09-22-2026 22:25:58:635,-123092.666,-88447.283,-65476.485,-73179.88,-89082.118,-83583.186,-71293.124,-99696.872
3.556,09-22-2026 22:25:58:639,-123265.758,-89205.052,-124726.623,-130694.494,-99313.942,-120180.457,-102676.18,-107385.425
3.56,09-22-2026 22:25:58:643,-123246.088,-89046.712,-122532.174,-129993.097,-102217.567,-131024.093,-114299.534,-114097.654
3.564,09-22-2026 22:25:58:647,-123108.402,-88345.493,-71328.35,-80895.255,-95442.441,-105270.458,-93764.942,-111290.721
3.568,09-22-2026 22:25:58:651,-123021.856,-87938.334,-33291.225,-43019.777,-86869.831,-74095.005,-65868.892,-102015.642
3.572,09-22-2026 22:25:58:655,-123132.005,-88458.593,-64013.519,-71777.084,-89082.118,-82227.732,-70518.234,-99330.75
3.576,09-22-2026 22:25:58:659,-123305.097,-89227.672,-123995.14,-129993.097,-99175.674,-119276.821,-101901.29,-107019.303
3.58,09-22-2026 22:25:58:663,-123293.295,-89103.262,-123263.657,-130694.494,-102494.103,-131024.093,-114299.534,-113853.572
3.584,09-22-2026 22:25:58:667,-123155.609,-88402.043,-72059.834,-81596.652,-95718.976,-105722.276,-94152.387,-110802.559
3.588,09-22-2026 22:25:58:671,-123072.997,-87983.574,-33291.225,-43019.777,-87146.367,-74095.005,-65868.892,-101161.358
3.592,09-22-2026 22:25:58:675,-123179.212,-88492.523,-63282.035,-71075.686,-89082.118,-81775.913,-69743.344,-98842.588
3.596,09-22-2026 22:25:58:679,-123352.304,-89261.602,-123263.657,-129291.699,-99313.942,-118825.003,-101126.4,-107019.303
3.6,09-22-2026 22:25:58:683,-123340.502,-89148.502,-123263.657,-130694.494,-102632.371,-131024.093,-114299.534,-114097.654
3.604,09-22-2026 22:25:58:687,-123202.413,-88457.386,-73366.695,-82751.478,-96177.902,-106312.273,-94686.102,-111070.065
3.608,09-22-2026 22:25:58:691,-123115.688,-88024.657,-32859.255,-42710.652,-87411.459,-74668.014,-66271.447,-101411.429
3.612,09-22-2026 22:25:58:695,-123224.094,-88522.296,-62516.488,-70107.006,-89140.053,-81353.421,-69681.206,-98811.027
3.616,09-22-2026 22:25:58:699,-123397.544,-89301.209,-122554.302,-128412.068,-99264.678,-118346.005,-100747.895,-106859.89
3.62,09-22-2026 22:25:58:703,-123388.871,-89193.027,-124000.996,-131221.951,-102845.338,-131271.125,-114386.93,-114041.953
3.624,09-22-2026 22:25:58:707,-123254.448,-88500.659,-74090.043,-83453.948,-96424.844,-107203.66,-95064.964,-111193.894
3.628,09-22-2026 22:25:58:711,-123163.387,-88057.111,-32859.255,-42710.652,-87534.93,-74668.014,-66271.447,-101535.258
3.632,09-22-2026 22:25:58:715,-123267.457,-88543.932,-61793.141,-69404.536,-89140.053,-81353.421,-69302.344,-98811.027
3.636,09-22-2026 22:25:58:719,-123449.579,-89333.664,-121830.955,-127709.598,-99264.678,-117900.311,-100369.033,-106859.89
3.64,09-22-2026 22:25:58:723,-123440.906,-89236.3,-124000.996,-131221.951,-102968.809,-131271.125,-114386.93,-114041.953
3.644,09-22-2026 22:25:58:727,-123315.155,-88554.751,-75536.737,-84858.89,-96671.787,-107649.354,-95822.688,-111441.551
3.648,09-22-2026 22:25:58:731,-123228.431,-88100.384,-32859.255,-42710.652,-87781.872,-75113.708,-66650.309,-101659.087
3.652,09-22-2026 22:25:58:735,-123336.836,-88587.205,-61069.794,-68702.065,-89263.524,-80907.727,-68923.482,-98811.027
3.656,09-22-2026 22:25:58:739,-123518.959,-89366.119,-121107.608,-127007.127,-99264.678,-117454.617,-99990.171,-106736.062
3.66,09-22-2026 22:25:58:743,-123523.295,-89290.391,-124724.343,-131924.421,-103092.28,-131271.125,-114386.93,-114041.953
3.664,09-22-2026 22:25:58:747,-123393.208,-88608.842,-76260.084,-85561.36,-96918.729,-108095.048,-96201.551,-111441.551
3.668,09-22-2026 22:25:58:751,-123302.147,-88132.839,-32859.255,-42710.652,-87905.343,-75113.708,-66650.309,-101659.087
3.672,09-22-2026 22:25:58:755,-123406.216,-88598.023,-59623.1,-67297.124,-89140.053,-80016.339,-68544.62,-98563.37
3.676,09-22-2026 22:25:58:759,-123588.338,-89387.755,-120384.26,-126304.656,-99141.207,-116563.23,-99232.447,-106364.576
3.68,09-22-2026 22:25:58:763,-123592.675,-89312.028,-124724.343,-131924.421,-103092.28,-131271.125,-114008.068,-113794.296
3.684,09-22-2026 22:25:58:767,-123466.924,-88641.296,-76260.084,-85561.36,-97042.2,-108095.048,-96201.551,-111317.722
3.688,09-22-2026 22:25:58:771,-123371.526,-88154.475,-32859.255,-42710.652,-87905.343,-74668.014,-66271.447,-101535.258
3.692,09-22-2026 22:25:58:775,-123475.596,-88608.842,-58899.752,-66594.653,-89016.582,-79570.646,-67786.895,-98315.713
3.696,09-22-2026 22:25:58:779,-123662.054,-89398.574,-118937.566,-124899.715,-98894.265,-115671.842,-98474.723,-105869.261
3.7,09-22-2026 22:25:58:783,-123666.391,-89355.301,-124724.343,-131924.421,-103092.28,-131271.125,-114008.068,-113546.638
3.704,09-22-2026 22:25:58:787,-123546.272,-88689.129,-77731.991,-87035.234,-97214.085,-108993.275,-97035.941,-111439.092
3.708,09-22-2026 22:25:58:791,-123447.746,-88195.334,-33514.34,-43371.325,-88120.858,-75548.27,-67216.389,-101801.02
3.712,09-22-2026 22:25:58:795,-123551.458,-88642.101,-57910.285,-66313.379,-89043.36,-79264.382,-68001.114,-98496.538
3.716,09-22-2026 22:25:58:799,-123738.14,-89441.578,-118900.149,-125518.68,-98927.301,-115496.47,-98213.029,-106069.309
3.72,09-22-2026 22:25:58:803,-123753.697,-89418.064,-126523.882,-133659.409,-103276.235,-131754.459,-114692.255,-113917.454
3.724,09-22-2026 22:25:58:807,-123634.428,-88747.914,-79256.738,-88515.367,-97609.442,-109922.303,-97820.666,-111852.153
3.728,09-22-2026 22:25:58:811,-123535.901,-88242.363,-33514.34,-43371.325,-88384.43,-76012.784,-68001.114,-102214.08
3.732,09-22-2026 22:25:58:815,-123634.428,-88677.372,-57910.285,-65573.313,-89175.146,-79264.382,-68001.114,-98634.225
3.736,09-22-2026 22:25:58:819,-123821.109,-89488.606,-118900.149,-124778.613,-98927.301,-115496.47,-98213.029,-106206.996
3.74,09-22-2026 22:25:58:823,-123836.666,-89465.092,-127286.256,-134399.475,-103539.807,-132218.973,-115084.617,-114192.827
3.744,09-22-2026 22:25:58:827,-123717.397,-88818.456,-80781.484,-89995.499,-98004.8,-110851.331,-98605.391,-112402.9
3.748,09-22-2026 22:25:58:831,-123618.871,-88301.148,-34276.713,-44111.391,-88779.788,-76941.812,-68393.477,-102764.827
3.752,09-22-2026 22:25:58:835,-123717.397,-88724.4,-57910.285,-65573.313,-89438.717,-79728.896,-68393.477,-99047.285
3.756,09-22-2026 22:25:58:839,-123909.265,-89535.634,-118900.149,-124778.613,-99190.873,-115496.47,-98213.029,-106482.369
3.76,09-22-2026 22:25:58:843,-123930.007,-89535.634,-128048.629,-135139.541,-103803.379,-133148.001,-115869.342,-114605.887
3.764,09-22-2026 22:25:58:847,-123815.924,-88888.998,-82306.231,-91475.632,-98531.943,-112244.873,-99782.479,-113091.333
3.768,09-22-2026 22:25:58:851,-123717.397,-88359.933,-35801.46,-45591.524,-89306.931,-77870.84,-69570.565,-103453.261
3.772,09-22-2026 22:25:58:855,-123815.924,-88783.185,-57910.285,-65573.313,-89834.075,-80193.41,-68785.84,-99735.719
3.776,09-22-2026 22:25:58:859,-124002.606,-89594.42,-118900.149,-124778.613,-99454.445,-115496.47,-98605.391,-107033.116
3.78,09-22-2026 22:25:58:863,-124028.534,-89606.177,-129573.376,-136619.674,-104330.522,-133612.515,-116261.705,-115294.321
3.784,09-22-2026 22:25:58:867,-123914.45,-88971.298,-84593.351,-93695.831,-99190.873,-113638.415,-100959.566,-113917.454
3.788,09-22-2026 22:25:58:871,-123805.553,-88430.475,-36563.833,-46331.59,-89965.861,-78799.868,-70747.652,-104279.382
3.792,09-22-2026 22:25:58:875,-123898.893,-88830.213,-57910.285,-66313.379,-90361.218,-80657.924,-69570.565,-100424.153
3.796,09-22-2026 22:25:58:879,-124085.575,-89653.205,-118900.149,-124778.613,-99849.802,-115960.984,-98997.754,-107583.863
3.8,09-22-2026 22:25:58:883,-124106.318,-89688.476,-130335.749,-137359.74,-104857.666,-134541.542,-117046.43,-115982.755
3.804,09-22-2026 22:25:58:887,-123994.067,-89060.928,-86377.691,-95509.719,-99956.465,-114929.585,-102502.641,-114955.022
3.808,09-22-2026 22:25:58:891,-123884.097,-88522.698,-38522.785,-48417.276,-90843.033,-80795.253,-72372.579,-105531.75
3.812,09-22-2026 22:25:58:895,-123977.572,-88910.724,-58272.428,-66812.762,-91111.075,-81693.525,-70827.448,-101571.244
3.816,09-22-2026 22:25:58:899,-124170.02,-89736.845,-119040.563,-124942.496,-100492.549,-116276.993,-99412.379,-108536.271
3.82,09-22-2026 22:25:58:903,-124208.51,-89799.43,-132713.393,-139658.885,-105719.37,-136038.975,-118340.238,-117003.559
3.824,09-22-2026 22:25:58:907,-124098.539,-89173.581,-88656.496,-97717.178,-100894.612,-116726.129,-104434.056,-116047.575
3.828,09-22-2026 22:25:58:911,-123994.067,-88610.317,-39282.386,-49153.095,-91781.18,-82142.661,-73917.711,-106624.303
3.832,09-22-2026 22:25:58:915,-124087.542,-88998.343,-59032.03,-66812.762,-91781.18,-82142.661,-71600.014,-102527.228
3.836,09-22-2026 22:25:58:919,-124274.492,-89811.947,-119040.563,-125678.316,-101028.633,-116726.129,-99798.661,-109219.117
3.84,09-22-2026 22:25:58:923,-124312.982,-89899.566,-133472.995,-140394.704,-106523.497,-136937.247,-119112.804,-117822.974
3.844,09-22-2026 22:25:58:927,-124203.011,-89286.234,-90935.301,-99924.636,-101832.76,-118522.673,-105592.904,-117003.559
3.848,09-22-2026 22:25:58:931,-124087.542,-88710.453,-40801.59,-50624.734,-92719.328,-83490.069,-75462.842,-107716.856
3.852,09-22-2026 22:25:58:935,-124175.519,-89073.445,-59032.03,-66812.762,-92585.306,-83040.933,-72372.579,-103346.643
3.856,09-22-2026 22:25:58:939,-124367.967,-89899.566,-119040.563,-124942.496,-101698.739,-116726.129,-100184.944,-109901.963
3.86,09-22-2026 22:25:58:943,-124406.457,-89987.184,-134992.198,-141866.343,-107193.602,-137835.519,-119885.37,-118642.389
3.864,09-22-2026 22:25:58:947,-124296.486,-89373.853,-92454.504,-101396.275,-102770.907,-119870.081,-106751.753,-117959.543
3.868,09-22-2026 22:25:58:951,-124181.017,-88785.555,-41561.191,-51360.554,-93523.454,-84388.341,-76621.691,-108536.271
3.872,09-22-2026 22:25:58:955,-124263.495,-89136.03,-59032.03,-66812.762,-93121.391,-83040.933,-72758.862,-103892.92
3.876,09-22-2026 22:25:58:959,-124450.445,-89949.633,-118280.961,-124942.496,-102100.802,-116726.129,-99798.661,-110311.67
3.88,09-22-2026 22:25:58:963,-124488.935,-90062.286,-134992.198,-141866.343,-107729.686,-137835.519,-119885.37,-118915.527
3.884,09-22-2026 22:25:58:967,-124378.964,-89448.954,-93214.106,-102132.094,-103306.991,-120319.217,-107524.318,-118369.251
3.888,09-22-2026 22:25:58:971,-124263.495,-88835.623,-41561.191,-51360.554,-93925.517,-84388.341,-77007.973,-108945.979
3.892,09-22-2026 22:25:58:975,-124345.973,-89173.581,-57512.827,-66076.942,-93389.433,-82591.797,-72758.862,-104029.489
3.896,09-22-2026 22:25:58:979,-124532.923,-89987.184,-116761.758,-123470.858,-102100.802,-115827.857,-99026.096,-110175.101
3.9,09-22-2026 22:25:58:983,-124582.41,-90112.354,-134992.198,-141866.343,-107863.707,-137835.519,-119499.087,-118915.527
3.904,09-22-2026 22:25:58:987,-124479.86,-89503.716,-93724.933,-102669.564,-103576.374,-120353.192,-107503.308,-118421.107
3.908,09-22-2026 22:25:58:991,-124358.267,-88886.629,-41569.819,-51534.093,-94250.333,-84616.597,-77463.502,-109029.395
3.912,09-22-2026 22:25:58:995,-124434.262,-89205.812,-56471.28,-64498.015,-93514.066,-81831.927,-72391.846,-103870.568
3.916,09-22-2026 22:25:58:999,-124624.252,-90025.048,-116077.124,-122115.448,-102103.842,-114783.852,-98140.251,-109823.061
3.92,09-22-2026 22:25:59:003,-124669.85,-90163.361,-134703.95,-141561.331,-107871.262,-137061.21,-118817.001,-118553.384
3.924,09-22-2026 22:25:59:007,-124559.656,-89556.913,-93724.933,-102669.564,-103699.086,-120353.192,-107503.308,-118288.829
3.928,09-22-2026 22:25:59:011,-124426.663,-88918.548,-40824.746,-50813.875,-94250.333,-84616.597,-77073.375,-108897.118
3.932,09-22-2026 22:25:59:015,-124491.259,-89227.091,-54981.134,-63777.797,-93391.355,-80903.704,-71611.592,-103606.013
3.936,09-22-2026 22:25:59:019,-124673.65,-90035.688,-114586.978,-120675.012,-101858.419,-113391.517,-96969.869,-109293.951
3.94,09-22-2026 22:25:59:023,-124711.648,-90195.279,-134703.95,-141561.331,-107748.551,-136597.098,-118426.873,-118156.551
3.944,09-22-2026 22:25:59:027,-124593.854,-89588.832,-93724.933,-102669.564,-103699.086,-119889.08,-107113.18,-117891.996
3.948,09-22-2026 22:25:59:031,-124453.261,-88950.466,-40824.746,-50813.875,-94127.622,-84152.485,-77073.375,-108500.285
3.952,09-22-2026 22:25:59:035,-124514.058,-89248.37,-53490.988,-61617.143,-93023.222,-79975.48,-70831.337,-102944.625
3.956,09-22-2026 22:25:59:039,-124692.649,-90056.967,-113096.832,-119234.576,-101490.286,-111999.182,-95799.487,-108500.285
3.96,09-22-2026 22:25:59:043,-124734.446,-90216.558,-133958.877,-140841.113,-107503.129,-135668.875,-117256.491,-117362.886
3.964,09-22-2026 22:25:59:047,-124624.252,-89631.389,-93724.933,-102669.564,-103453.663,-119889.08,-106723.053,-117230.608
